age =   17.0    [Fe/H] =    0.00

wavele(nm) log wave(A)   Hlam       log(Hlam/Hlam(V))  Hlam(mag(V)) 
      89.50   2.951823     0.8090E-13 -15.15005  37.87511
      90.50   2.956649     0.1315E-12 -14.93916  37.34790
      91.50   2.961421     0.2058E-12 -14.74459  36.86147
      92.50   2.966142     0.3646E-11 -13.49615  33.74036
      93.50   2.970812     0.5116E-11 -13.34903  33.37259
      94.50   2.975432     0.7612E-11 -13.17650  32.94125
      95.50   2.980003     0.1176E-10 -12.98763  32.46909
      96.50   2.984527     0.1777E-10 -12.80839  32.02097
      97.50   2.989005     0.2406E-10 -12.67674  31.69185
      98.50   2.993436     0.3463E-10 -12.51853  31.29632
      99.50   2.997823     0.4812E-10 -12.37569  30.93923
     100.50   3.002166     0.7242E-10 -12.19812  30.49531
     101.50   3.006466     0.1004E-09 -12.05620  30.14050
     102.50   3.010724     0.1165E-09 -11.99160  29.97900
     103.50   3.014940     0.1966E-09 -11.76435  29.41089
     104.50   3.019116     0.2771E-09 -11.61538  29.03845
     105.50   3.023252     0.3510E-09 -11.51267  28.78167
     106.50   3.027350     0.4902E-09 -11.36756  28.41891
     107.50   3.031409     0.6688E-09 -11.23269  28.08171
     108.50   3.035430     0.9120E-09 -11.09799  27.74497
     109.50   3.039414     0.1142E-08 -11.00043  27.50107
     110.50   3.043362     0.2880E-08 -10.59865  26.49663
     111.50   3.047275     0.4399E-08 -10.41464  26.03661
     112.50   3.051152     0.6362E-08 -10.25439  25.63599
     113.50   3.054996     0.9455E-08 -10.08230  25.20576
     114.50   3.058805     0.1271E-07  -9.95383  24.88458
     115.50   3.062582     0.1546E-07  -9.86880  24.67199
     116.50   3.066326     0.2088E-07  -9.73832  24.34580
     117.50   3.070038     0.2737E-07  -9.62075  24.05186
     118.50   3.073718     0.3155E-07  -9.55902  23.89754
     119.50   3.077368     0.3069E-07  -9.57101  23.92752
     120.50   3.080987     0.3475E-07  -9.51707  23.79268
     121.50   3.084576     0.1253E-07  -9.96018  24.90044
     122.50   3.088136     0.4927E-07  -9.36536  23.41339
     123.50   3.091667     0.8680E-07  -9.11945  22.79862
     124.50   3.095169     0.1138E-06  -9.00167  22.50419
     125.50   3.098644     0.1367E-06  -8.92230  22.30576
     126.50   3.102091     0.1542E-06  -8.87003  22.17508
     127.50   3.105510     0.1877E-06  -8.78443  21.96107
     128.50   3.108903     0.2114E-06  -8.73284  21.83210
     129.50   3.112270     0.2582E-06  -8.64594  21.61486
     130.50   3.115611     0.2818E-06  -8.60801  21.52002
     131.50   3.118926     0.3521E-06  -8.51125  21.27813
     132.50   3.122216     0.3736E-06  -8.48560  21.21401
     133.50   3.125481     0.4228E-06  -8.43189  21.07972
     134.50   3.128722     0.5079E-06  -8.35222  20.88054
     135.50   3.131939     0.6070E-06  -8.27482  20.68705
     136.50   3.135133     0.6630E-06  -8.23645  20.59113
     137.50   3.138303     0.7354E-06  -8.19142  20.47856
     138.50   3.141450     0.8236E-06  -8.14224  20.35559
     139.50   3.144574     0.9413E-06  -8.08424  20.21059
     140.50   3.147676     0.1164E-05  -7.99184  19.97960
     141.50   3.150756     0.1351E-05  -7.92732  19.81830
     142.50   3.153815     0.1585E-05  -7.85792  19.64479
     143.50   3.156852     0.1914E-05  -7.77592  19.43981
     144.20   3.158965     0.2442E-05  -7.67030  19.17576
     144.70   3.160469     0.2255E-05  -7.70482  19.26205
     145.50   3.162863     0.2655E-05  -7.63388  19.08469
     146.50   3.165838     0.3428E-05  -7.52292  18.80729
     147.50   3.168792     0.3964E-05  -7.45989  18.64972
     148.50   3.171726     0.4334E-05  -7.42108  18.55269
     149.50   3.174641     0.5646E-05  -7.30622  18.26556
     150.50   3.177536     0.6945E-05  -7.21633  18.04081
     151.20   3.179552     0.5518E-05  -7.31616  18.29040
     151.70   3.180986     0.6946E-05  -7.21625  18.04063
     152.50   3.183270     0.1713E-04  -6.82429  17.06071
     153.50   3.186108     0.2937E-04  -6.59012  16.47529
     154.50   3.188928     0.2410E-04  -6.67593  16.68983
     155.50   3.191730     0.4126E-04  -6.44243  16.10608
     156.50   3.194514     0.3916E-04  -6.46514  16.16285
     157.50   3.197281     0.8011E-04  -6.15429  15.38571
     158.50   3.200029     0.9790E-04  -6.06720  15.16800
     159.50   3.202761     0.1157E-03  -5.99467  14.98668
     160.50   3.205475     0.1237E-03  -5.96551  14.91377
     161.50   3.208173     0.1359E-03  -5.92479  14.81197
     162.50   3.210853     0.1540E-03  -5.87058  14.67645
     163.50   3.213518     0.1861E-03  -5.78820  14.47050
     164.50   3.216166     0.2689E-03  -5.62832  14.07081
     165.50   3.218798     0.1796E-03  -5.80366  14.50916
     166.50   3.221414     0.3186E-03  -5.55473  13.88684
     167.20   3.223236     0.2222E-03  -5.71130  14.27824
     167.70   3.224533     0.8844E-03  -5.11132  12.77829
     168.50   3.226600     0.9976E-03  -5.05902  12.64756
     169.50   3.229170     0.1265E-02  -4.95579  12.38948
     170.50   3.231725     0.1360E-02  -4.92448  12.31120
     171.50   3.234264     0.1278E-02  -4.95151  12.37876
     172.50   3.236789     0.1690E-02  -4.83012  12.07530
     173.50   3.239300     0.2026E-02  -4.75131  11.87827
     174.50   3.241796     0.2838E-02  -4.60500  11.51249
     175.50   3.244277     0.3826E-02  -4.47522  11.18805
     176.50   3.246745     0.3646E-02  -4.49612  11.24029
     177.50   3.249198     0.3903E-02  -4.46654  11.16635
     178.50   3.251638     0.5255E-02  -4.33742  10.84356
     179.50   3.254065     0.6217E-02  -4.26442  10.66106
     180.50   3.256477     0.6900E-02  -4.21913  10.54782
     181.50   3.258877     0.6486E-02  -4.24600  10.61499
     182.50   3.261263     0.8374E-02  -4.13506  10.33764
     183.50   3.263636     0.8718E-02  -4.11758  10.29394
     184.50   3.265996     0.6751E-02  -4.22859  10.57146
     185.50   3.268344     0.9583E-02  -4.07646  10.19116
     186.50   3.270679     0.1135E-01  -4.00291  10.00729
     187.50   3.273001     0.1234E-01  -3.96659   9.91648
     188.50   3.275311     0.1334E-01  -3.93273   9.83183
     189.50   3.277609     0.1763E-01  -3.81179   9.52948
     190.50   3.279895     0.1723E-01  -3.82168   9.55420
     191.50   3.282169     0.1950E-01  -3.76803   9.42008
     192.50   3.284431     0.1994E-01  -3.75833   9.39581
     193.50   3.286681     0.1425E-01  -3.90431   9.76078
     194.50   3.288920     0.2579E-01  -3.64651   9.11627
     195.50   3.291147     0.2749E-01  -3.61883   9.04707
     196.70   3.293804     0.3553E-01  -3.50741   8.76852
     197.60   3.295787     0.3481E-01  -3.51633   8.79083
     198.40   3.297542     0.4013E-01  -3.45447   8.63617
     199.50   3.299943     0.4130E-01  -3.44206   8.60516
     200.50   3.302114     0.4076E-01  -3.44777   8.61944
     201.50   3.304275     0.4535E-01  -3.40136   8.50340
     202.50   3.306425     0.3734E-01  -3.48577   8.71442
     203.50   3.308564     0.5123E-01  -3.34844   8.37109
     204.50   3.310693     0.5914E-01  -3.28611   8.21528
     205.50   3.312812     0.6242E-01  -3.26266   8.15666
     206.50   3.314920     0.6272E-01  -3.26060   8.15150
     207.40   3.316809     0.6782E-01  -3.22663   8.06659
     207.80   3.317646     0.1826E+00  -2.79658   6.99144
     208.50   3.319106     0.2454E+00  -2.66804   6.67009
     209.50   3.321184     0.2278E+00  -2.70036   6.75089
     210.50   3.323252     0.2334E+00  -2.68995   6.72488
     211.50   3.325310     0.2819E+00  -2.60787   6.51968
     212.50   3.327359     0.2520E+00  -2.65663   6.64158
     213.50   3.329398     0.2621E+00  -2.63948   6.59870
     214.50   3.331427     0.3444E+00  -2.52087   6.30217
     215.50   3.333447     0.3160E+00  -2.55831   6.39577
     216.50   3.335458     0.2811E+00  -2.60919   6.52296
     217.50   3.337459     0.2733E+00  -2.62136   6.55339
     218.50   3.339452     0.4005E+00  -2.45535   6.13837
     219.50   3.341434     0.3791E+00  -2.47923   6.19808
     220.50   3.343409     0.3919E+00  -2.46480   6.16200
     221.50   3.345374     0.2926E+00  -2.59171   6.47928
     222.50   3.347330     0.3881E+00  -2.46906   6.17264
     223.50   3.349277     0.5746E+00  -2.29864   5.74660
     224.50   3.351216     0.5540E+00  -2.31446   5.78615
     225.50   3.353147     0.4108E+00  -2.44435   6.11087
     226.50   3.355068     0.3353E+00  -2.53254   6.33134
     227.50   3.356982     0.3716E+00  -2.48791   6.21977
     228.50   3.358886     0.6192E+00  -2.26611   5.66529
     229.50   3.360783     0.4755E+00  -2.38084   5.95210
     230.50   3.362671     0.6025E+00  -2.27802   5.69505
     231.50   3.364551     0.5187E+00  -2.34310   5.85775
     232.50   3.366423     0.4671E+00  -2.38853   5.97133
     233.50   3.368287     0.4418E+00  -2.41275   6.03189
     234.50   3.370143     0.2828E+00  -2.60645   6.51613
     235.50   3.371991     0.5415E+00  -2.32434   5.81086
     236.50   3.373831     0.3354E+00  -2.53240   6.33100
     237.50   3.375664     0.4321E+00  -2.42235   6.05588
     238.50   3.377488     0.2797E+00  -2.61129   6.52822
     239.50   3.379306     0.3505E+00  -2.51333   6.28333
     240.50   3.381115     0.3818E+00  -2.47613   6.19032
     241.50   3.382917     0.3955E+00  -2.46080   6.15200
     242.50   3.384712     0.7259E+00  -2.19707   5.49267
     243.50   3.386499     0.7710E+00  -2.17091   5.42727
     244.50   3.388279     0.9714E+00  -2.07057   5.17642
     245.50   3.390052     0.1072E+01  -2.02773   5.06933
     246.50   3.391817     0.8015E+00  -2.15405   5.38513
     247.50   3.393575     0.7008E+00  -2.21237   5.53093
     248.50   3.395326     0.2895E+00  -2.59631   6.49077
     249.50   3.397071     0.4521E+00  -2.40273   6.00681
     250.50   3.398808     0.7875E+00  -2.16170   5.40425
     251.30   3.400192     0.3435E+00  -2.52206   6.30516
     251.80   3.401056     0.2436E+00  -2.67130   6.67826
     252.50   3.402261     0.2815E+00  -2.60843   6.52108
     253.50   3.403978     0.6503E+00  -2.24485   5.61211
     254.50   3.405688     0.6768E+00  -2.22752   5.56879
     255.50   3.407391     0.1745E+01  -1.81620   4.54050
     256.50   3.409087     0.1148E+01  -1.99802   4.99505
     257.50   3.410777     0.1684E+01  -1.83155   4.57887
     258.50   3.412461     0.1455E+01  -1.89503   4.73757
     259.50   3.414137     0.1319E+01  -1.93765   4.84412
     260.50   3.415808     0.1149E+01  -1.99775   4.99437
     261.50   3.417472     0.1018E+01  -2.05019   5.12548
     262.50   3.419129     0.1470E+01  -1.89059   4.72649
     263.50   3.420781     0.3171E+01  -1.55675   3.89188
     264.50   3.422426     0.4195E+01  -1.43523   3.58807
     265.50   3.424065     0.7045E+01  -1.21012   3.02529
     266.50   3.425697     0.3825E+01  -1.47533   3.68832
     267.50   3.427324     0.4325E+01  -1.42194   3.55485
     268.50   3.428944     0.5535E+01  -1.31486   3.28714
     269.50   3.430559     0.3400E+01  -1.52655   3.81639
     270.50   3.432167     0.4733E+01  -1.38288   3.45721
     271.50   3.433770     0.3078E+01  -1.56977   3.92442
     272.50   3.435366     0.1867E+01  -1.78675   4.46686
     273.50   3.436957     0.2792E+01  -1.61211   4.03028
     274.50   3.438542     0.1663E+01  -1.83715   4.59288
     275.50   3.440122     0.2440E+01  -1.67054   4.17634
     276.50   3.441695     0.3431E+01  -1.52255   3.80637
     277.50   3.443263     0.3606E+01  -1.50100   3.75251
     278.50   3.444825     0.1995E+01  -1.75796   4.39489
     279.50   3.446382     0.9014E+00  -2.10307   5.25767
     280.50   3.447933     0.1111E+01  -2.01217   5.03043
     281.50   3.449478     0.3070E+01  -1.57080   3.92700
     282.50   3.451018     0.4479E+01  -1.40680   3.51699
     283.50   3.452553     0.3788E+01  -1.47952   3.69880
     284.50   3.454082     0.2104E+01  -1.73485   4.33713
     285.50   3.455606     0.1021E+01  -2.04906   5.12264
     286.50   3.457125     0.3275E+01  -1.54271   3.85678
     287.50   3.458638     0.5920E+01  -1.28564   3.21409
     288.50   3.460146     0.5715E+01  -1.30093   3.25234
     289.50   3.461648     0.8307E+01  -1.13851   2.84627
     291.00   3.463893     0.1301E+02  -0.94357   2.35892
     293.00   3.466868     0.1236E+02  -0.96604   2.41511
     295.00   3.469822     0.1222E+02  -0.97076   2.42689
     297.00   3.472756     0.1306E+02  -0.94215   2.35537
     299.00   3.475671     0.1433E+02  -0.90169   2.25424
     301.00   3.478566     0.1434E+02  -0.90130   2.25326
     303.00   3.481443     0.1630E+02  -0.84572   2.11430
     305.00   3.484300     0.1675E+02  -0.83385   2.08462
     307.00   3.487138     0.1646E+02  -0.84142   2.10354
     309.00   3.489959     0.1363E+02  -0.92353   2.30883
     311.00   3.492760     0.1754E+02  -0.81403   2.03508
     313.00   3.495544     0.1508E+02  -0.87955   2.19888
     315.00   3.498311     0.1541E+02  -0.87017   2.17542
     317.00   3.501059     0.1827E+02  -0.79636   1.99089
     319.00   3.503791     0.1522E+02  -0.87558   2.18895
     321.00   3.506505     0.1693E+02  -0.82942   2.07356
     323.00   3.509202     0.1447E+02  -0.89757   2.24392
     325.00   3.511883     0.2216E+02  -0.71232   1.78079
     327.00   3.514548     0.2599E+02  -0.64312   1.60781
     329.00   3.517196     0.2557E+02  -0.65017   1.62542
     331.00   3.519828     0.2275E+02  -0.70095   1.75236
     333.00   3.522444     0.2393E+02  -0.67899   1.69748
     335.00   3.525045     0.2304E+02  -0.69551   1.73878
     337.00   3.527630     0.1551E+02  -0.86740   2.16850
     339.00   3.530200     0.1879E+02  -0.78404   1.96010
     341.00   3.532754     0.2002E+02  -0.75651   1.89127
     343.00   3.535294     0.2223E+02  -0.71104   1.77760
     345.00   3.537819     0.2589E+02  -0.64485   1.61214
     347.00   3.540329     0.2741E+02  -0.62009   1.55023
     349.00   3.542825     0.3105E+02  -0.56590   1.41475
     351.00   3.545307     0.3290E+02  -0.54080   1.35201
     353.00   3.547775     0.2867E+02  -0.60050   1.50124
     355.00   3.550228     0.3182E+02  -0.55530   1.38826
     357.00   3.552668     0.2360E+02  -0.68502   1.71254
     359.00   3.555094     0.2559E+02  -0.64996   1.62489
     361.00   3.557507     0.3294E+02  -0.54024   1.35060
     363.00   3.559907     0.3358E+02  -0.53195   1.32988
     364.00   3.561101     0.3305E+02  -0.53876   1.34689
     365.00   3.562293     0.3448E+02  -0.52045   1.30112
     367.00   3.564666     0.3817E+02  -0.47628   1.19071
     369.00   3.567026     0.3286E+02  -0.54127   1.35317
     371.00   3.569374     0.3383E+02  -0.52871   1.32178
     373.00   3.571709     0.1906E+02  -0.77785   1.94464
     375.00   3.574031     0.2246E+02  -0.70648   1.76621
     377.00   3.576341     0.3254E+02  -0.54556   1.36391
     379.00   3.578639     0.3349E+02  -0.53305   1.33262
     381.00   3.580925     0.2979E+02  -0.58386   1.45966
     383.00   3.583199     0.1459E+02  -0.89393   2.23482
     385.00   3.585461     0.2106E+02  -0.73451   1.83628
     387.00   3.587711     0.2084E+02  -0.73909   1.84772
     389.00   3.589950     0.2990E+02  -0.58230   1.45574
     391.00   3.592177     0.3827E+02  -0.47515   1.18786
     393.00   3.594393     0.1695E+02  -0.82884   2.07211
     395.00   3.596597     0.3256E+02  -0.54531   1.36327
     397.00   3.598790     0.2208E+02  -0.71393   1.78482
     399.00   3.600973     0.5363E+02  -0.32853   0.82133
     401.00   3.603144     0.6027E+02  -0.27787   0.69467
     403.00   3.605305     0.5868E+02  -0.28945   0.72364
     405.00   3.607455     0.5594E+02  -0.31023   0.77558
     407.00   3.609594     0.5176E+02  -0.34397   0.85994
     409.00   3.611723     0.6824E+02  -0.22396   0.55990
     411.00   3.613842     0.6346E+02  -0.25544   0.63861
     413.00   3.615950     0.6041E+02  -0.27687   0.69219
     415.00   3.618048     0.5824E+02  -0.29278   0.73196
     417.00   3.620136     0.5975E+02  -0.28161   0.70402
     419.00   3.622214     0.5828E+02  -0.29244   0.73110
     421.00   3.624282     0.5900E+02  -0.28710   0.71774
     423.00   3.626340     0.5452E+02  -0.32146   0.80365
     425.00   3.628389     0.6023E+02  -0.27819   0.69548
     427.00   3.630428     0.5633E+02  -0.30724   0.76810
     429.00   3.632457     0.5260E+02  -0.33702   0.84254
     431.00   3.634477     0.4568E+02  -0.39825   0.99561
     433.00   3.636488     0.7093E+02  -0.20716   0.51790
     435.00   3.638489     0.7179E+02  -0.20191   0.50478
     437.00   3.640481     0.7767E+02  -0.16775   0.41937
     439.00   3.642465     0.6711E+02  -0.23118   0.57794
     441.00   3.644439     0.7178E+02  -0.20195   0.50488
     443.00   3.646404     0.7890E+02  -0.16089   0.40223
     445.00   3.648360     0.8010E+02  -0.15436   0.38591
     447.00   3.650307     0.8703E+02  -0.11830   0.29575
     449.00   3.652246     0.9015E+02  -0.10301   0.25752
     451.00   3.654176     0.1048E+03  -0.03779   0.09448
     453.00   3.656098     0.8970E+02  -0.10517   0.26293
     455.00   3.658011     0.9532E+02  -0.07880   0.19701
     457.00   3.659916     0.1043E+03  -0.03966   0.09914
     459.00   3.661813     0.9756E+02  -0.06870   0.17174
     461.00   3.663701     0.1011E+03  -0.05328   0.13319
     463.00   3.665581     0.9825E+02  -0.06565   0.16414
     465.00   3.667453     0.9962E+02  -0.05963   0.14908
     467.00   3.669317     0.1051E+03  -0.03652   0.09131
     469.00   3.671173     0.1024E+03  -0.04785   0.11962
     471.00   3.673021     0.1002E+03  -0.05712   0.14279
     473.00   3.674861     0.1034E+03  -0.04328   0.10820
     475.00   3.676694     0.1063E+03  -0.03156   0.07890
     477.00   3.678518     0.1033E+03  -0.04403   0.11007
     479.00   3.680336     0.1046E+03  -0.03832   0.09581
     481.00   3.682145     0.1056E+03  -0.03448   0.08620
     483.00   3.683947     0.1097E+03  -0.01781   0.04453
     485.00   3.685742     0.1051E+03  -0.03648   0.09120
     487.00   3.687529     0.9689E+02  -0.07172   0.17929
     489.00   3.689309     0.1067E+03  -0.02965   0.07412
     491.00   3.691082     0.1075E+03  -0.02649   0.06622
     493.00   3.692847     0.1053E+03  -0.03575   0.08938
     495.00   3.694605     0.1095E+03  -0.01837   0.04592
     497.00   3.696356     0.1047E+03  -0.03796   0.09490
     499.00   3.698101     0.9705E+02  -0.07100   0.17750
     501.00   3.699838     0.9072E+02  -0.10025   0.25063
     503.00   3.701568     0.9765E+02  -0.06831   0.17078
     505.00   3.703291     0.9738E+02  -0.06948   0.17371
     507.00   3.705008     0.1019E+03  -0.04978   0.12446
     509.00   3.706718     0.9596E+02  -0.07589   0.18971
     511.00   3.708421     0.9869E+02  -0.06369   0.15923
     513.00   3.710117     0.9547E+02  -0.07811   0.19527
     515.00   3.711807     0.9168E+02  -0.09569   0.23922
     517.00   3.713490     0.8062E+02  -0.15155   0.37888
     519.00   3.715167     0.8504E+02  -0.12833   0.32083
     521.00   3.716838     0.9453E+02  -0.08240   0.20600
     523.00   3.718502     0.1060E+03  -0.03261   0.08154
     525.00   3.720159     0.1119E+03  -0.00917   0.02293
     527.00   3.721811     0.9640E+02  -0.07390   0.18476
     529.00   3.723456     0.1147E+03   0.00163  -0.00407
     531.00   3.725095     0.1232E+03   0.03263  -0.08158
     533.00   3.726727     0.1064E+03  -0.03104   0.07759
     535.00   3.728354     0.1188E+03   0.01686  -0.04216
     537.00   3.729974     0.1175E+03   0.01202  -0.03005
     539.00   3.731589     0.1149E+03   0.00218  -0.00546
     541.00   3.733197     0.1132E+03  -0.00430   0.01074
     543.00   3.734800     0.1150E+03   0.00280  -0.00700
     545.00   3.736397     0.1172E+03   0.01103  -0.02759
     547.00   3.737987     0.1146E+03   0.00131  -0.00328
     549.00   3.739572     0.1167E+03   0.00906  -0.02264
     551.00   3.741152     0.1143E+03   0.00000   0.00000
     553.00   3.742725     0.1196E+03   0.01978  -0.04945
     555.00   3.744293     0.1220E+03   0.02855  -0.07137
     557.00   3.745855     0.1193E+03   0.01882  -0.04705
     559.00   3.747412     0.1157E+03   0.00552  -0.01381
     561.00   3.748963     0.1201E+03   0.02153  -0.05382
