age =    8.0    [Fe/H] =    0.25

wavele(nm) log wave(A)   Hlam       log(Hlam/Hlam(V))  Hlam(mag(V)) 
      90.50   2.956649     0.4731E-14 -16.56905  41.42263
      91.50   2.961421     0.2119E-12 -14.91780  37.29450
      92.50   2.966142     0.6217E-11 -13.45046  33.62616
      93.50   2.970812     0.8781E-11 -13.30048  33.25121
      94.50   2.975432     0.1303E-10 -13.12894  32.82235
      95.50   2.980003     0.1985E-10 -12.94635  32.36587
      96.50   2.984527     0.2986E-10 -12.76897  31.92243
      97.50   2.989005     0.4066E-10 -12.63488  31.58720
      98.50   2.993436     0.5740E-10 -12.48512  31.21280
      99.50   2.997823     0.7869E-10 -12.34809  30.87023
     100.50   3.002166     0.1194E-09 -12.16701  30.41751
     101.50   3.006466     0.1653E-09 -12.02576  30.06440
     102.50   3.010724     0.1973E-09 -11.94885  29.87213
     103.50   3.014940     0.3193E-09 -11.73978  29.34944
     104.50   3.019116     0.4434E-09 -11.59725  28.99311
     105.50   3.023252     0.5733E-09 -11.48561  28.71404
     106.50   3.027350     0.7806E-09 -11.35158  28.37894
     107.50   3.031409     0.1065E-08 -11.21679  28.04197
     108.50   3.035430     0.1434E-08 -11.08747  27.71869
     109.50   3.039414     0.1801E-08 -10.98858  27.47144
     110.50   3.043362     0.4692E-08 -10.57268  26.43171
     111.50   3.047275     0.7210E-08 -10.38610  25.96525
     112.50   3.051152     0.1034E-07 -10.22941  25.57354
     113.50   3.054996     0.1507E-07 -10.06602  25.16506
     114.50   3.058805     0.2020E-07  -9.93858  24.84645
     115.50   3.062582     0.2437E-07  -9.85710  24.64274
     116.50   3.066326     0.3330E-07  -9.72160  24.30401
     117.50   3.070038     0.4308E-07  -9.60976  24.02439
     118.50   3.073718     0.5009E-07  -9.54425  23.86064
     119.50   3.077368     0.4884E-07  -9.55521  23.88803
     120.50   3.080987     0.5959E-07  -9.46882  23.67204
     121.50   3.084576     0.2362E-07  -9.87073  24.67683
     122.50   3.088136     0.8520E-07  -9.31356  23.28390
     123.50   3.091667     0.1363E-06  -9.10966  22.77416
     124.50   3.095169     0.1743E-06  -9.00271  22.50677
     125.50   3.098644     0.2071E-06  -8.92788  22.31969
     126.50   3.102091     0.2321E-06  -8.87834  22.19585
     127.50   3.105510     0.2823E-06  -8.79338  21.98344
     128.50   3.108903     0.3163E-06  -8.74392  21.85980
     129.50   3.112270     0.3865E-06  -8.65687  21.64217
     130.50   3.115611     0.4172E-06  -8.62364  21.55910
     131.50   3.118926     0.5223E-06  -8.52611  21.31528
     132.50   3.122216     0.5511E-06  -8.50280  21.25699
     133.50   3.125481     0.6226E-06  -8.44978  21.12446
     134.50   3.128722     0.7473E-06  -8.37052  20.92631
     135.50   3.131939     0.8914E-06  -8.29395  20.73487
     136.50   3.135133     0.9691E-06  -8.25766  20.64415
     137.50   3.138303     0.1071E-05  -8.21423  20.53557
     138.50   3.141450     0.1195E-05  -8.16660  20.41651
     139.50   3.144574     0.1367E-05  -8.10825  20.27061
     140.50   3.147676     0.1686E-05  -8.01728  20.04319
     141.50   3.150756     0.1950E-05  -7.95402  19.88506
     142.50   3.153815     0.2286E-05  -7.88489  19.71222
     143.50   3.156852     0.2761E-05  -7.80298  19.50745
     144.20   3.158965     0.3528E-05  -7.69644  19.24111
     144.70   3.160469     0.3245E-05  -7.73278  19.33194
     145.50   3.162863     0.3825E-05  -7.66143  19.15356
     146.50   3.165838     0.4945E-05  -7.54986  18.87465
     147.50   3.168792     0.5709E-05  -7.48743  18.71857
     148.50   3.171726     0.6230E-05  -7.44955  18.62388
     149.50   3.174641     0.8138E-05  -7.33350  18.33375
     150.50   3.177536     0.1002E-04  -7.24332  18.10829
     151.20   3.179552     0.7879E-05  -7.34753  18.36883
     151.70   3.180986     0.9964E-05  -7.24556  18.11390
     152.50   3.183270     0.2508E-04  -6.84462  17.11155
     153.50   3.186108     0.4332E-04  -6.60734  16.51836
     154.50   3.188928     0.3547E-04  -6.69414  16.73535
     155.50   3.191730     0.6117E-04  -6.45747  16.14368
     156.50   3.194514     0.5795E-04  -6.48093  16.20231
     157.50   3.197281     0.1208E-03  -6.16202  15.40504
     158.50   3.200029     0.1482E-03  -6.07329  15.18323
     159.50   3.202761     0.1749E-03  -6.00113  15.00282
     160.50   3.205475     0.1865E-03  -5.97330  14.93326
     161.50   3.208173     0.2038E-03  -5.93488  14.83720
     162.50   3.210853     0.2321E-03  -5.87840  14.69601
     163.50   3.213518     0.2806E-03  -5.79599  14.48996
     164.50   3.216166     0.4067E-03  -5.63476  14.08689
     165.50   3.218798     0.2685E-03  -5.81504  14.53760
     166.50   3.221414     0.4821E-03  -5.56090  13.90225
     167.20   3.223236     0.3329E-03  -5.72168  14.30421
     167.70   3.224533     0.1431E-02  -5.08838  12.72095
     168.50   3.226600     0.1601E-02  -5.03949  12.59874
     169.50   3.229170     0.2049E-02  -4.93256  12.33139
     170.50   3.231725     0.2192E-02  -4.90319  12.25798
     171.50   3.234264     0.2075E-02  -4.92700  12.31750
     172.50   3.236789     0.2751E-02  -4.80451  12.01126
     173.50   3.239300     0.3320E-02  -4.72283  11.80706
     174.50   3.241796     0.4681E-02  -4.57371  11.43427
     175.50   3.244277     0.6353E-02  -4.44104  11.10260
     176.50   3.246745     0.6045E-02  -4.46260  11.15651
     177.50   3.249198     0.6474E-02  -4.43285  11.08213
     178.50   3.251638     0.8717E-02  -4.30367  10.75917
     179.50   3.254065     0.1039E-01  -4.22747  10.56868
     180.50   3.256477     0.1151E-01  -4.18300  10.45750
     181.50   3.258877     0.1078E-01  -4.21125  10.52811
     182.50   3.261263     0.1410E-01  -4.09467  10.23668
     183.50   3.263636     0.1456E-01  -4.08090  10.20224
     184.50   3.265996     0.1125E-01  -4.19269  10.48172
     185.50   3.268344     0.1599E-01  -4.04029  10.10073
     186.50   3.270679     0.1899E-01  -3.96554   9.91385
     187.50   3.273001     0.2066E-01  -3.92878   9.82196
     188.50   3.275311     0.2235E-01  -3.89475   9.73687
     189.50   3.277609     0.2964E-01  -3.77213   9.43032
     190.50   3.279895     0.2893E-01  -3.78259   9.45648
     191.50   3.282169     0.3251E-01  -3.73198   9.32994
     192.50   3.284431     0.3307E-01  -3.72457   9.31142
     193.50   3.286681     0.2310E-01  -3.88043   9.70107
     194.50   3.288920     0.4332E-01  -3.60734   9.01836
     195.50   3.291147     0.4601E-01  -3.58118   8.95294
     196.70   3.293804     0.5982E-01  -3.46719   8.66797
     197.60   3.295787     0.5852E-01  -3.47670   8.69176
     198.40   3.297542     0.6809E-01  -3.41091   8.52729
     199.50   3.299943     0.6965E-01  -3.40108   8.50270
     200.50   3.302114     0.6893E-01  -3.40559   8.51398
     201.50   3.304275     0.7627E-01  -3.36165   8.40413
     202.50   3.306425     0.6304E-01  -3.44442   8.61105
     203.50   3.308564     0.8620E-01  -3.30852   8.27130
     204.50   3.310693     0.9950E-01  -3.24618   8.11545
     205.50   3.312812     0.1050E+00  -3.22285   8.05712
     206.50   3.314920     0.1054E+00  -3.22104   8.05261
     207.40   3.316809     0.1136E+00  -3.18860   7.97150
     207.80   3.317646     0.2734E+00  -2.80722   7.01805
     208.50   3.319106     0.3633E+00  -2.68376   6.70940
     209.50   3.321184     0.3421E+00  -2.70986   6.77465
     210.50   3.323252     0.3524E+00  -2.69703   6.74257
     211.50   3.325310     0.4121E+00  -2.62898   6.57245
     212.50   3.327359     0.3691E+00  -2.67692   6.69230
     213.50   3.329398     0.3860E+00  -2.65739   6.64347
     214.50   3.331427     0.4941E+00  -2.55022   6.37554
     215.50   3.333447     0.4651E+00  -2.57648   6.44120
     216.50   3.335458     0.4306E+00  -2.60995   6.52488
     217.50   3.337459     0.4267E+00  -2.61389   6.53472
     218.50   3.339452     0.5762E+00  -2.48342   6.20855
     219.50   3.341434     0.5678E+00  -2.48980   6.22449
     220.50   3.343409     0.5783E+00  -2.48182   6.20456
     221.50   3.345374     0.4503E+00  -2.59050   6.47625
     222.50   3.347330     0.5739E+00  -2.48518   6.21296
     223.50   3.349277     0.8064E+00  -2.33747   5.84367
     224.50   3.351216     0.7867E+00  -2.34818   5.87046
     225.50   3.353147     0.6247E+00  -2.44831   6.12076
     226.50   3.355068     0.5265E+00  -2.52263   6.30658
     227.50   3.356982     0.5994E+00  -2.46629   6.16573
     228.50   3.358886     0.9093E+00  -2.28531   5.71328
     229.50   3.360783     0.7338E+00  -2.37845   5.94612
     230.50   3.362671     0.8820E+00  -2.29854   5.74635
     231.50   3.364551     0.7829E+00  -2.35033   5.87582
     232.50   3.366423     0.7275E+00  -2.38216   5.95539
     233.50   3.368287     0.6976E+00  -2.40042   6.00105
     234.50   3.370143     0.4596E+00  -2.58164   6.45409
     235.50   3.371991     0.8385E+00  -2.32052   5.80130
     236.50   3.373831     0.5456E+00  -2.50713   6.26782
     237.50   3.375664     0.6962E+00  -2.40127   6.00318
     238.50   3.377488     0.4563E+00  -2.58472   6.46179
     239.50   3.379306     0.5719E+00  -2.48668   6.21669
     240.50   3.381115     0.6193E+00  -2.45209   6.13023
     241.50   3.382917     0.6352E+00  -2.44112   6.10279
     242.50   3.384712     0.1089E+01  -2.20694   5.51735
     243.50   3.386499     0.1164E+01  -2.17802   5.44505
     244.50   3.388279     0.1433E+01  -2.08781   5.21953
     245.50   3.390052     0.1566E+01  -2.04918   5.12294
     246.50   3.391817     0.1238E+01  -2.15141   5.37852
     247.50   3.393575     0.1104E+01  -2.20117   5.50294
     248.50   3.395326     0.4852E+00  -2.55812   6.39530
     249.50   3.397071     0.7413E+00  -2.37403   5.93508
     250.50   3.398808     0.1262E+01  -2.14304   5.35760
     251.30   3.400192     0.5672E+00  -2.49026   6.22565
     251.80   3.401056     0.3961E+00  -2.64622   6.61556
     252.50   3.402261     0.4631E+00  -2.57836   6.44591
     253.50   3.403978     0.1022E+01  -2.23441   5.58604
     254.50   3.405688     0.1097E+01  -2.20385   5.50964
     255.50   3.407391     0.2654E+01  -1.82011   4.55027
     256.50   3.409087     0.1803E+01  -1.98801   4.97001
     257.50   3.410777     0.2561E+01  -1.83555   4.58889
     258.50   3.412461     0.2268E+01  -1.88833   4.72084
     259.50   3.414137     0.2076E+01  -1.92677   4.81693
     260.50   3.415808     0.1838E+01  -1.97967   4.94917
     261.50   3.417472     0.1639E+01  -2.02949   5.07372
     262.50   3.419129     0.2348E+01  -1.87336   4.68341
     263.50   3.420781     0.4831E+01  -1.56000   3.89999
     264.50   3.422426     0.6402E+01  -1.43770   3.59424
     265.50   3.424065     0.1068E+02  -1.21531   3.03827
     266.50   3.425697     0.5663E+01  -1.49096   3.72739
     267.50   3.427324     0.6501E+01  -1.43104   3.57759
     268.50   3.428944     0.8206E+01  -1.32987   3.32468
     269.50   3.430559     0.5316E+01  -1.51843   3.79607
     270.50   3.432167     0.7335E+01  -1.37863   3.44656
     271.50   3.433770     0.4873E+01  -1.55623   3.89058
     272.50   3.435366     0.3074E+01  -1.75634   4.39086
     273.50   3.436957     0.4435E+01  -1.59716   3.99291
     274.50   3.438542     0.2640E+01  -1.82248   4.55619
     275.50   3.440122     0.3788E+01  -1.66565   4.16413
     276.50   3.441695     0.5217E+01  -1.52662   3.81656
     277.50   3.443263     0.5539E+01  -1.50061   3.75151
     278.50   3.444825     0.3219E+01  -1.73624   4.34060
     279.50   3.446382     0.1413E+01  -2.09391   5.23479
     280.50   3.447933     0.1756E+01  -1.99942   4.99855
     281.50   3.449478     0.4929E+01  -1.55129   3.87822
     282.50   3.451018     0.7188E+01  -1.38741   3.46852
     283.50   3.452553     0.6440E+01  -1.43511   3.58779
     284.50   3.454082     0.3769E+01  -1.66776   4.16940
     285.50   3.455606     0.1806E+01  -1.98737   4.96842
     286.50   3.457125     0.5870E+01  -1.47539   3.68847
     287.50   3.458638     0.1022E+02  -1.23446   3.08615
     288.50   3.460146     0.9328E+01  -1.27421   3.18552
     289.50   3.461648     0.1292E+02  -1.13264   2.83160
     291.00   3.463893     0.1917E+02  -0.96137   2.40341
     293.00   3.466868     0.1705E+02  -1.01218   2.53045
     295.00   3.469822     0.1596E+02  -1.04107   2.60267
     297.00   3.472756     0.1693E+02  -1.01526   2.53816
     299.00   3.475671     0.1764E+02  -0.99760   2.49400
     301.00   3.478566     0.1715E+02  -1.00966   2.52416
     303.00   3.481443     0.1958E+02  -0.95228   2.38070
     305.00   3.484300     0.2012E+02  -0.94043   2.35107
     307.00   3.487138     0.2227E+02  -0.89636   2.24090
     309.00   3.489959     0.2046E+02  -0.93318   2.33295
     311.00   3.492760     0.2576E+02  -0.83300   2.08250
     313.00   3.495544     0.2302E+02  -0.88192   2.20480
     315.00   3.498311     0.2359E+02  -0.87130   2.17826
     317.00   3.501059     0.2709E+02  -0.81116   2.02790
     319.00   3.503791     0.2252E+02  -0.89144   2.22861
     321.00   3.506505     0.2514E+02  -0.84361   2.10904
     323.00   3.509202     0.2085E+02  -0.92482   2.31205
     325.00   3.511883     0.3168E+02  -0.74325   1.85814
     327.00   3.514548     0.3778E+02  -0.66673   1.66683
     329.00   3.517196     0.3708E+02  -0.67491   1.68726
     331.00   3.519828     0.3378E+02  -0.71531   1.78828
     333.00   3.522444     0.3552E+02  -0.69357   1.73393
     335.00   3.525045     0.3439E+02  -0.70761   1.76902
     337.00   3.527630     0.2427E+02  -0.85894   2.14735
     339.00   3.530200     0.2841E+02  -0.79050   1.97625
     341.00   3.532754     0.2946E+02  -0.77472   1.93679
     343.00   3.535294     0.3115E+02  -0.75049   1.87624
     345.00   3.537819     0.3474E+02  -0.70312   1.75781
     347.00   3.540329     0.3648E+02  -0.68192   1.70480
     349.00   3.542825     0.4181E+02  -0.62277   1.55692
     351.00   3.545307     0.4465E+02  -0.59418   1.48544
     353.00   3.547775     0.3873E+02  -0.65595   1.63987
     355.00   3.550228     0.4418E+02  -0.59882   1.49704
     357.00   3.552668     0.2949E+02  -0.77435   1.93588
     359.00   3.555094     0.3159E+02  -0.74448   1.86121
     361.00   3.557507     0.4169E+02  -0.62396   1.55991
     363.00   3.559907     0.4437E+02  -0.59692   1.49229
     364.00   3.561101     0.4506E+02  -0.59023   1.47557
     365.00   3.562293     0.5062E+02  -0.53965   1.34913
     367.00   3.564666     0.5549E+02  -0.49978   1.24944
     369.00   3.567026     0.4796E+02  -0.56309   1.40773
     371.00   3.569374     0.5005E+02  -0.54460   1.36149
     373.00   3.571709     0.2987E+02  -0.76878   1.92196
     375.00   3.574031     0.3465E+02  -0.70436   1.76091
     377.00   3.576341     0.4820E+02  -0.56094   1.40234
     379.00   3.578639     0.4940E+02  -0.55030   1.37574
     381.00   3.580925     0.4424E+02  -0.59819   1.49547
     383.00   3.583199     0.2280E+02  -0.88613   2.21533
     385.00   3.585461     0.3154E+02  -0.74519   1.86297
     387.00   3.587711     0.3161E+02  -0.74422   1.86054
     389.00   3.589950     0.4561E+02  -0.58495   1.46238
     391.00   3.592177     0.5719E+02  -0.48666   1.21665
     393.00   3.594393     0.2577E+02  -0.83282   2.08206
     395.00   3.596597     0.4752E+02  -0.56717   1.41793
     397.00   3.598790     0.3248E+02  -0.73241   1.83103
     399.00   3.600973     0.7881E+02  -0.34741   0.86853
     401.00   3.603144     0.8912E+02  -0.29403   0.73508
     403.00   3.605305     0.8795E+02  -0.29977   0.74941
     405.00   3.607455     0.8371E+02  -0.32122   0.80306
     407.00   3.609594     0.7739E+02  -0.35533   0.88833
     409.00   3.611723     0.1019E+03  -0.23583   0.58957
     411.00   3.613842     0.9566E+02  -0.26326   0.65815
     413.00   3.615950     0.9039E+02  -0.28791   0.71976
     415.00   3.618048     0.8824E+02  -0.29833   0.74583
     417.00   3.620136     0.8999E+02  -0.28984   0.72459
     419.00   3.622214     0.8899E+02  -0.29468   0.73669
     421.00   3.624282     0.9055E+02  -0.28713   0.71784
     423.00   3.626340     0.8235E+02  -0.32836   0.82091
     425.00   3.628389     0.9361E+02  -0.27268   0.68170
     427.00   3.630428     0.8742E+02  -0.30242   0.75604
     429.00   3.632457     0.8176E+02  -0.33147   0.82868
     431.00   3.634477     0.7139E+02  -0.39039   0.97597
     433.00   3.636488     0.1098E+03  -0.20341   0.50852
     435.00   3.638489     0.1117E+03  -0.19579   0.48947
     437.00   3.640481     0.1222E+03  -0.15695   0.39238
     439.00   3.642465     0.1047E+03  -0.22390   0.55974
     441.00   3.644439     0.1114E+03  -0.19725   0.49311
     443.00   3.646404     0.1208E+03  -0.16186   0.40464
     445.00   3.648360     0.1233E+03  -0.15320   0.38299
     447.00   3.650307     0.1344E+03  -0.11557   0.28892
     449.00   3.652246     0.1392E+03  -0.10037   0.25092
     451.00   3.654176     0.1640E+03  -0.02905   0.07263
     453.00   3.656098     0.1383E+03  -0.10324   0.25811
     455.00   3.658011     0.1470E+03  -0.07668   0.19171
     457.00   3.659916     0.1625E+03  -0.03323   0.08306
     459.00   3.661813     0.1516E+03  -0.06345   0.15861
     461.00   3.663701     0.1563E+03  -0.05001   0.12504
     463.00   3.665581     0.1507E+03  -0.06580   0.16451
     465.00   3.667453     0.1535E+03  -0.05788   0.14469
     467.00   3.669317     0.1629E+03  -0.03201   0.08003
     469.00   3.671173     0.1593E+03  -0.04191   0.10477
     471.00   3.673021     0.1541E+03  -0.05634   0.14085
     473.00   3.674861     0.1605E+03  -0.03860   0.09651
     475.00   3.676694     0.1654E+03  -0.02535   0.06339
     477.00   3.678518     0.1610E+03  -0.03726   0.09314
     479.00   3.680336     0.1632E+03  -0.03128   0.07819
     481.00   3.682145     0.1638E+03  -0.02974   0.07435
     483.00   3.683947     0.1718E+03  -0.00895   0.02238
     485.00   3.685742     0.1623E+03  -0.03377   0.08442
     487.00   3.687529     0.1483E+03  -0.07287   0.18218
     489.00   3.689309     0.1658E+03  -0.02432   0.06080
     491.00   3.691082     0.1668E+03  -0.02193   0.05483
     493.00   3.692847     0.1630E+03  -0.03174   0.07936
     495.00   3.694605     0.1704E+03  -0.01245   0.03114
     497.00   3.696356     0.1621E+03  -0.03436   0.08589
     499.00   3.698101     0.1491E+03  -0.07058   0.17646
     501.00   3.699838     0.1384E+03  -0.10296   0.25740
     503.00   3.701568     0.1502E+03  -0.06747   0.16867
     505.00   3.703291     0.1502E+03  -0.06742   0.16856
     507.00   3.705008     0.1578E+03  -0.04604   0.11510
     509.00   3.706718     0.1472E+03  -0.07611   0.19029
     511.00   3.708421     0.1524E+03  -0.06095   0.15239
     513.00   3.710117     0.1462E+03  -0.07910   0.19775
     515.00   3.711807     0.1405E+03  -0.09621   0.24053
     517.00   3.713490     0.1218E+03  -0.15821   0.39552
     519.00   3.715167     0.1287E+03  -0.13443   0.33607
     521.00   3.716838     0.1446E+03  -0.08392   0.20981
     523.00   3.718502     0.1631E+03  -0.03148   0.07871
     525.00   3.720159     0.1730E+03  -0.00604   0.01509
     527.00   3.721811     0.1474E+03  -0.07555   0.18887
     529.00   3.723456     0.1778E+03   0.00596  -0.01490
     531.00   3.725095     0.1926E+03   0.04057  -0.10142
     533.00   3.726727     0.1629E+03  -0.03213   0.08032
     535.00   3.728354     0.1843E+03   0.02160  -0.05400
     537.00   3.729974     0.1824E+03   0.01713  -0.04283
     539.00   3.731589     0.1773E+03   0.00458  -0.01146
     541.00   3.733197     0.1749E+03  -0.00118   0.00294
     543.00   3.734800     0.1785E+03   0.00763  -0.01907
     545.00   3.736397     0.1818E+03   0.01570  -0.03924
     547.00   3.737987     0.1767E+03   0.00318  -0.00796
     549.00   3.739572     0.1781E+03   0.00659  -0.01649
     551.00   3.741152     0.1754E+03   0.00000   0.00000
     553.00   3.742725     0.1849E+03   0.02283  -0.05708
     555.00   3.744293     0.1892E+03   0.03288  -0.08221
     557.00   3.745855     0.1851E+03   0.02350  -0.05875
     559.00   3.747412     0.1788E+03   0.00830  -0.02075
     561.00   3.748963     0.1860E+03   0.02562  -0.06404
     563.00   3.750508     0.1845E+03   0.02189  -0.05473
