age =    9.0    [Fe/H] =    0.00

wavele(nm) log wave(A)   Hlam       log(Hlam/Hlam(V))  Hlam(mag(V)) 
      89.50   2.951823     0.1631E-12 -15.08657  37.71642
      90.50   2.956649     0.2613E-12 -14.88187  37.20467
      91.50   2.961421     0.4088E-12 -14.68753  36.71883
      92.50   2.966142     0.3757E-10 -12.72427  31.81067
      93.50   2.970812     0.5251E-10 -12.57885  31.44712
      94.50   2.975432     0.7542E-10 -12.42160  31.05401
      95.50   2.980003     0.1135E-09 -12.24395  30.60987
      96.50   2.984527     0.1642E-09 -12.08367  30.20918
      97.50   2.989005     0.2193E-09 -11.95804  29.89511
      98.50   2.993436     0.3066E-09 -11.81258  29.53146
      99.50   2.997823     0.4146E-09 -11.68142  29.20355
     100.50   3.002166     0.6122E-09 -11.51219  28.78047
     101.50   3.006466     0.8278E-09 -11.38114  28.45284
     102.50   3.010724     0.9724E-09 -11.31126  28.27814
     103.50   3.014940     0.1542E-08 -11.11089  27.77721
     104.50   3.019116     0.2102E-08 -10.97644  27.44109
     105.50   3.023252     0.2712E-08 -10.86575  27.16438
     106.50   3.027350     0.3595E-08 -10.74337  26.85843
     107.50   3.031409     0.4835E-08 -10.61469  26.53671
     108.50   3.035430     0.6451E-08 -10.48948  26.22370
     109.50   3.039414     0.8127E-08 -10.38916  25.97291
     110.50   3.043362     0.4853E-07  -9.61304  24.03259
     111.50   3.047275     0.8924E-07  -9.34854  23.37136
     112.50   3.051152     0.1343E-06  -9.17111  22.92779
     113.50   3.054996     0.1984E-06  -9.00164  22.50411
     114.50   3.058805     0.2654E-06  -8.87514  22.18786
     115.50   3.062582     0.3080E-06  -8.81054  22.02634
     116.50   3.066326     0.4211E-06  -8.67475  21.68688
     117.50   3.070038     0.5406E-06  -8.56624  21.41560
     118.50   3.073718     0.5886E-06  -8.52927  21.32316
     119.50   3.077368     0.4661E-06  -8.63060  21.57650
     120.50   3.080987     0.5083E-06  -8.59295  21.48238
     121.50   3.084576     0.1095E-06  -9.25958  23.14896
     122.50   3.088136     0.6817E-06  -8.46549  21.16373
     123.50   3.091667     0.1428E-05  -8.14430  20.36075
     124.50   3.095169     0.2113E-05  -7.97421  19.93552
     125.50   3.098644     0.2611E-05  -7.88223  19.70558
     126.50   3.102091     0.2758E-05  -7.85848  19.64619
     127.50   3.105510     0.3464E-05  -7.75954  19.39885
     128.50   3.108903     0.4010E-05  -7.69596  19.23989
     129.50   3.112270     0.4875E-05  -7.61110  19.02776
     130.50   3.115611     0.5027E-05  -7.59782  18.99454
     131.50   3.118926     0.6360E-05  -7.49560  18.73901
     132.50   3.122216     0.6678E-05  -7.47446  18.68615
     133.50   3.125481     0.7450E-05  -7.42693  18.56732
     134.50   3.128722     0.8741E-05  -7.35754  18.39386
     135.50   3.131939     0.1007E-04  -7.29607  18.24017
     136.50   3.135133     0.1080E-04  -7.26569  18.16422
     137.50   3.138303     0.1163E-04  -7.23364  18.08409
     138.50   3.141450     0.1275E-04  -7.19358  17.98396
     139.50   3.144574     0.1435E-04  -7.14209  17.85522
     140.50   3.147676     0.1733E-04  -7.06021  17.65054
     141.50   3.150756     0.1958E-04  -7.00729  17.51823
     142.50   3.153815     0.2245E-04  -6.94778  17.36944
     143.50   3.156852     0.2648E-04  -6.87613  17.19032
     144.20   3.158965     0.3432E-04  -6.76359  16.90899
     144.70   3.160469     0.3077E-04  -6.81099  17.02748
     145.50   3.162863     0.3627E-04  -6.73956  16.84891
     146.50   3.165838     0.4602E-04  -6.63610  16.59026
     147.50   3.168792     0.5224E-04  -6.58109  16.45272
     148.50   3.171726     0.5630E-04  -6.54858  16.37146
     149.50   3.174641     0.7379E-04  -6.43110  16.07776
     150.50   3.177536     0.8965E-04  -6.34656  15.86640
     151.20   3.179552     0.6787E-04  -6.46742  16.16854
     151.70   3.180986     0.8675E-04  -6.36082  15.90204
     152.50   3.183270     0.2004E-03  -5.99713  14.99283
     153.50   3.186108     0.3223E-03  -5.79081  14.47702
     154.50   3.188928     0.2698E-03  -5.86802  14.67006
     155.50   3.191730     0.4350E-03  -5.66058  14.15144
     156.50   3.194514     0.4097E-03  -5.68665  14.21662
     157.50   3.197281     0.7396E-03  -5.43010  13.57524
     158.50   3.200029     0.8972E-03  -5.34619  13.36548
     159.50   3.202761     0.1048E-02  -5.27872  13.19681
     160.50   3.205475     0.1123E-02  -5.24882  13.12204
     161.50   3.208173     0.1234E-02  -5.20761  13.01903
     162.50   3.210853     0.1379E-02  -5.15958  12.89895
     163.50   3.213518     0.1613E-02  -5.09144  12.72859
     164.50   3.216166     0.2253E-02  -4.94634  12.36585
     165.50   3.218798     0.1439E-02  -5.14096  12.85240
     166.50   3.221414     0.2581E-02  -4.88730  12.21826
     167.20   3.223236     0.1820E-02  -5.03910  12.59776
     167.70   3.224533     0.6497E-02  -4.48635  11.21588
     168.50   3.226600     0.7343E-02  -4.43323  11.08308
     169.50   3.229170     0.9031E-02  -4.34335  10.85838
     170.50   3.231725     0.9799E-02  -4.30788  10.76971
     171.50   3.234264     0.9788E-02  -4.30840  10.77099
     172.50   3.236789     0.1227E-01  -4.21037  10.52592
     173.50   3.239300     0.1490E-01  -4.12604  10.31511
     174.50   3.241796     0.2014E-01  -3.99501   9.98753
     175.50   3.244277     0.2794E-01  -3.85289   9.63222
     176.50   3.246745     0.2486E-01  -3.90352   9.75880
     177.50   3.249198     0.2842E-01  -3.84545   9.61362
     178.50   3.251638     0.3700E-01  -3.73088   9.32719
     179.50   3.254065     0.4855E-01  -3.61294   9.03234
     180.50   3.256477     0.4784E-01  -3.61928   9.04821
     181.50   3.258877     0.4354E-01  -3.66021   9.15053
     182.50   3.261263     0.5483E-01  -3.56007   8.90018
     183.50   3.263636     0.5708E-01  -3.54263   8.85658
     184.50   3.265996     0.4247E-01  -3.67100   9.17750
     185.50   3.268344     0.6479E-01  -3.48755   8.71887
     186.50   3.270679     0.7877E-01  -3.40271   8.50679
     187.50   3.273001     0.8397E-01  -3.37497   8.43743
     188.50   3.275311     0.8999E-01  -3.34488   8.36220
     189.50   3.277609     0.1183E+00  -3.22627   8.06568
     190.50   3.279895     0.1139E+00  -3.24258   8.10645
     191.50   3.282169     0.1264E+00  -3.19722   7.99306
     192.50   3.284431     0.1199E+00  -3.22011   8.05027
     193.50   3.286681     0.8211E-01  -3.38469   8.46173
     194.50   3.288920     0.1630E+00  -3.08685   7.71712
     195.50   3.291147     0.1700E+00  -3.06861   7.67153
     196.70   3.293804     0.2231E+00  -2.95058   7.37646
     197.60   3.295787     0.2029E+00  -2.99185   7.47962
     198.40   3.297542     0.2566E+00  -2.88981   7.22452
     199.50   3.299943     0.2724E+00  -2.86393   7.15982
     200.50   3.302114     0.2614E+00  -2.88172   7.20429
     201.50   3.304275     0.2848E+00  -2.84453   7.11132
     202.50   3.306425     0.2265E+00  -2.94398   7.35995
     203.50   3.308564     0.3249E+00  -2.78740   6.96851
     204.50   3.310693     0.3788E+00  -2.72071   6.80177
     205.50   3.312812     0.3791E+00  -2.72028   6.80069
     206.50   3.314920     0.3749E+00  -2.72521   6.81301
     207.40   3.316809     0.4127E+00  -2.68346   6.70864
     207.80   3.317646     0.1309E+01  -2.18204   5.45509
     208.50   3.319106     0.1838E+01  -2.03464   5.08659
     209.50   3.321184     0.1672E+01  -2.07595   5.18987
     210.50   3.323252     0.1636E+01  -2.08526   5.21315
     211.50   3.325310     0.1940E+01  -2.01138   5.02844
     212.50   3.327359     0.1665E+01  -2.07765   5.19411
     213.50   3.329398     0.1623E+01  -2.08875   5.22188
     214.50   3.331427     0.2239E+01  -1.94898   4.87245
     215.50   3.333447     0.2156E+01  -1.96537   4.91343
     216.50   3.335458     0.1804E+01  -2.04294   5.10736
     217.50   3.337459     0.1808E+01  -2.04195   5.10488
     218.50   3.339452     0.2615E+01  -1.88154   4.70386
     219.50   3.341434     0.2451E+01  -1.90978   4.77445
     220.50   3.343409     0.2434E+01  -1.91278   4.78194
     221.50   3.345374     0.1718E+01  -2.06416   5.16041
     222.50   3.347330     0.2249E+01  -1.94718   4.86796
     223.50   3.349277     0.3259E+01  -1.78602   4.46505
     224.50   3.351216     0.3092E+01  -1.80890   4.52225
     225.50   3.353147     0.2176E+01  -1.96147   4.90366
     226.50   3.355068     0.1875E+01  -2.02605   5.06514
     227.50   3.356982     0.2103E+01  -1.97624   4.94060
     228.50   3.358886     0.3348E+01  -1.77436   4.43589
     229.50   3.360783     0.2562E+01  -1.89043   4.72607
     230.50   3.362671     0.3401E+01  -1.76749   4.41872
     231.50   3.364551     0.2698E+01  -1.86805   4.67013
     232.50   3.366423     0.2212E+01  -1.95422   4.88555
     233.50   3.368287     0.1841E+01  -2.03413   5.08531
     234.50   3.370143     0.1100E+01  -2.25781   5.64453
     235.50   3.371991     0.2537E+01  -1.89484   4.73709
     236.50   3.373831     0.1312E+01  -2.18129   5.45323
     237.50   3.375664     0.1813E+01  -2.04074   5.10185
     238.50   3.377488     0.9877E+00  -2.30447   5.76119
     239.50   3.379306     0.1305E+01  -2.18359   5.45897
     240.50   3.381115     0.1346E+01  -2.16991   5.42476
     241.50   3.382917     0.1630E+01  -2.08679   5.21697
     242.50   3.384712     0.3268E+01  -1.78487   4.46217
     243.50   3.386499     0.3375E+01  -1.77079   4.42697
     244.50   3.388279     0.4224E+01  -1.67333   4.18332
     245.50   3.390052     0.4640E+01  -1.63260   4.08151
     246.50   3.391817     0.3649E+01  -1.73689   4.34223
     247.50   3.393575     0.3146E+01  -1.80132   4.50331
     248.50   3.395326     0.1404E+01  -2.15162   5.37905
     249.50   3.397071     0.2112E+01  -1.97433   4.93582
     250.50   3.398808     0.3731E+01  -1.72726   4.31816
     251.30   3.400192     0.1306E+01  -2.18303   5.45756
     251.80   3.401056     0.9320E+00  -2.32968   5.82420
     252.50   3.402261     0.1095E+01  -2.25961   5.64903
     253.50   3.403978     0.2404E+01  -1.91812   4.79530
     254.50   3.405688     0.2582E+01  -1.88712   4.71780
     255.50   3.407391     0.5966E+01  -1.52344   3.80860
     256.50   3.409087     0.4005E+01  -1.69651   4.24127
     257.50   3.410777     0.5577E+01  -1.55271   3.88177
     258.50   3.412461     0.4740E+01  -1.62332   4.05829
     259.50   3.414137     0.4143E+01  -1.68177   4.20441
     260.50   3.415808     0.3454E+01  -1.76081   4.40203
     261.50   3.417472     0.3051E+01  -1.81465   4.53664
     262.50   3.419129     0.4495E+01  -1.64640   4.11601
     263.50   3.420781     0.9286E+01  -1.33127   3.32819
     264.50   3.422426     0.1283E+02  -1.19100   2.97750
     265.50   3.424065     0.1930E+02  -1.01355   2.53388
     266.50   3.425697     0.1116E+02  -1.25150   3.12876
     267.50   3.427324     0.1294E+02  -1.18730   2.96825
     268.50   3.428944     0.1563E+02  -1.10523   2.76306
     269.50   3.430559     0.1055E+02  -1.27568   3.18920
     270.50   3.432167     0.1371E+02  -1.16191   2.90478
     271.50   3.433770     0.9301E+01  -1.33055   3.32637
     272.50   3.435366     0.6575E+01  -1.48118   3.70295
     273.50   3.436957     0.9115E+01  -1.33933   3.34833
     274.50   3.438542     0.4730E+01  -1.62418   4.06045
     275.50   3.440122     0.6960E+01  -1.45647   3.64116
     276.50   3.441695     0.9682E+01  -1.31312   3.28281
     277.50   3.443263     0.1024E+02  -1.28862   3.22154
     278.50   3.444825     0.5531E+01  -1.55632   3.89080
     279.50   3.446382     0.2311E+01  -1.93528   4.83819
     280.50   3.447933     0.2882E+01  -1.83945   4.59862
     281.50   3.449478     0.8756E+01  -1.35680   3.39199
     282.50   3.451018     0.1368E+02  -1.16314   2.90784
     283.50   3.452553     0.1266E+02  -1.19650   2.99125
     284.50   3.454082     0.7986E+01  -1.39673   3.49183
     285.50   3.455606     0.3934E+01  -1.70428   4.26069
     286.50   3.457125     0.1233E+02  -1.20830   3.02075
     287.50   3.458638     0.1865E+02  -1.02834   2.57084
     288.50   3.460146     0.1658E+02  -1.07956   2.69890
     289.50   3.461648     0.2177E+02  -0.96131   2.40327
     291.00   3.463893     0.3127E+02  -0.80393   2.00982
     293.00   3.466868     0.2916E+02  -0.83425   2.08562
     295.00   3.469822     0.2888E+02  -0.83851   2.09627
     297.00   3.472756     0.3111E+02  -0.80621   2.01552
     299.00   3.475671     0.3321E+02  -0.77779   1.94448
     301.00   3.478566     0.3384E+02  -0.76961   1.92403
     303.00   3.481443     0.3681E+02  -0.73310   1.83275
     305.00   3.484300     0.3797E+02  -0.71961   1.79903
     307.00   3.487138     0.3722E+02  -0.72833   1.82082
     309.00   3.489959     0.3299E+02  -0.78067   1.95168
     311.00   3.492760     0.3924E+02  -0.70533   1.76331
     313.00   3.495544     0.3530E+02  -0.75135   1.87838
     315.00   3.498311     0.3505E+02  -0.75442   1.88604
     317.00   3.501059     0.4040E+02  -0.69265   1.73163
     319.00   3.503791     0.3437E+02  -0.76289   1.90722
     321.00   3.506505     0.3849E+02  -0.71379   1.78448
     323.00   3.509202     0.3266E+02  -0.78507   1.96268
     325.00   3.511883     0.4718E+02  -0.62536   1.56341
     327.00   3.514548     0.5456E+02  -0.56220   1.40551
     329.00   3.517196     0.5321E+02  -0.57311   1.43277
     331.00   3.519828     0.4912E+02  -0.60786   1.51966
     333.00   3.522444     0.5104E+02  -0.59120   1.47801
     335.00   3.525045     0.4969E+02  -0.60279   1.50698
     337.00   3.527630     0.3581E+02  -0.74505   1.86262
     339.00   3.530200     0.4227E+02  -0.67304   1.68260
     341.00   3.532754     0.4433E+02  -0.65243   1.63108
     343.00   3.535294     0.4767E+02  -0.62086   1.55216
     345.00   3.537819     0.5416E+02  -0.56541   1.41352
     347.00   3.540329     0.5650E+02  -0.54701   1.36753
     349.00   3.542825     0.6267E+02  -0.50200   1.25500
     351.00   3.545307     0.6580E+02  -0.48088   1.20221
     353.00   3.547775     0.5860E+02  -0.53122   1.32804
     355.00   3.550228     0.6535E+02  -0.48385   1.20962
     357.00   3.552668     0.5022E+02  -0.59819   1.49547
     359.00   3.555094     0.5308E+02  -0.57417   1.43542
     361.00   3.557507     0.6486E+02  -0.48712   1.21779
     363.00   3.559907     0.6608E+02  -0.47899   1.19747
     364.00   3.561101     0.6558E+02  -0.48231   1.20579
     365.00   3.562293     0.6951E+02  -0.45702   1.14254
     367.00   3.564666     0.7468E+02  -0.42589   1.06472
     369.00   3.567026     0.6628E+02  -0.47773   1.19433
     371.00   3.569374     0.6952E+02  -0.45700   1.14249
     373.00   3.571709     0.4472E+02  -0.64862   1.62155
     375.00   3.574031     0.5138E+02  -0.58831   1.47076
     377.00   3.576341     0.6821E+02  -0.46522   1.16306
     379.00   3.578639     0.7044E+02  -0.45124   1.12811
     381.00   3.580925     0.6583E+02  -0.48069   1.20173
     383.00   3.583199     0.3607E+02  -0.74192   1.85480
     385.00   3.585461     0.5099E+02  -0.59158   1.47894
     387.00   3.587711     0.5027E+02  -0.59777   1.49443
     389.00   3.589950     0.6437E+02  -0.49043   1.22608
     391.00   3.592177     0.7887E+02  -0.40219   1.00547
     393.00   3.594393     0.3669E+02  -0.73453   1.83632
     395.00   3.596597     0.6698E+02  -0.47312   1.18280
     397.00   3.598790     0.4567E+02  -0.63942   1.59856
     399.00   3.600973     0.1040E+03  -0.28202   0.70505
     401.00   3.603144     0.1155E+03  -0.23658   0.59144
     403.00   3.605305     0.1141E+03  -0.24179   0.60446
     405.00   3.607455     0.1092E+03  -0.26102   0.65255
     407.00   3.609594     0.1025E+03  -0.28837   0.72093
     409.00   3.611723     0.1286E+03  -0.18992   0.47479
     411.00   3.613842     0.1205E+03  -0.21807   0.54519
     413.00   3.615950     0.1170E+03  -0.23074   0.57686
     415.00   3.618048     0.1145E+03  -0.24010   0.60025
     417.00   3.620136     0.1164E+03  -0.23324   0.58309
     419.00   3.622214     0.1138E+03  -0.24298   0.60746
     421.00   3.624282     0.1154E+03  -0.23688   0.59221
     423.00   3.626340     0.1085E+03  -0.26382   0.65956
     425.00   3.628389     0.1171E+03  -0.23058   0.57644
     427.00   3.630428     0.1099E+03  -0.25807   0.64517
     429.00   3.632457     0.1023E+03  -0.28908   0.72271
     431.00   3.634477     0.8807E+02  -0.35425   0.88562
     433.00   3.636488     0.1324E+03  -0.17724   0.44310
     435.00   3.638489     0.1321E+03  -0.17828   0.44570
     437.00   3.640481     0.1441E+03  -0.14033   0.35082
     439.00   3.642465     0.1266E+03  -0.19678   0.49194
     441.00   3.644439     0.1349E+03  -0.16899   0.42248
     443.00   3.646404     0.1464E+03  -0.13351   0.33378
     445.00   3.648360     0.1479E+03  -0.12917   0.32291
     447.00   3.650307     0.1591E+03  -0.09737   0.24342
     449.00   3.652246     0.1639E+03  -0.08459   0.21147
     451.00   3.654176     0.1881E+03  -0.02468   0.06171
     453.00   3.656098     0.1632E+03  -0.08644   0.21610
     455.00   3.658011     0.1718E+03  -0.06395   0.15987
     457.00   3.659916     0.1872E+03  -0.02682   0.06706
     459.00   3.661813     0.1754E+03  -0.05513   0.13783
     461.00   3.663701     0.1815E+03  -0.04030   0.10076
     463.00   3.665581     0.1763E+03  -0.05287   0.13217
     465.00   3.667453     0.1791E+03  -0.04589   0.11472
     467.00   3.669317     0.1878E+03  -0.02539   0.06347
     469.00   3.671173     0.1834E+03  -0.03572   0.08930
     471.00   3.673021     0.1793E+03  -0.04542   0.11355
     473.00   3.674861     0.1857E+03  -0.03019   0.07547
     475.00   3.676694     0.1909E+03  -0.01837   0.04592
     477.00   3.678518     0.1866E+03  -0.02813   0.07032
     479.00   3.680336     0.1882E+03  -0.02439   0.06098
     481.00   3.682145     0.1886E+03  -0.02344   0.05860
     483.00   3.683947     0.1957E+03  -0.00759   0.01897
     485.00   3.685742     0.1860E+03  -0.02955   0.07386
     487.00   3.687529     0.1705E+03  -0.06725   0.16813
     489.00   3.689309     0.1897E+03  -0.02094   0.05235
     491.00   3.691082     0.1909E+03  -0.01832   0.04580
     493.00   3.692847     0.1875E+03  -0.02604   0.06510
     495.00   3.694605     0.1955E+03  -0.00793   0.01982
     497.00   3.696356     0.1878E+03  -0.02534   0.06336
     499.00   3.698101     0.1745E+03  -0.05733   0.14331
     501.00   3.699838     0.1642E+03  -0.08378   0.20944
     503.00   3.701568     0.1760E+03  -0.05356   0.13391
     505.00   3.703291     0.1762E+03  -0.05318   0.13296
     507.00   3.705008     0.1845E+03  -0.03311   0.08276
     509.00   3.706718     0.1741E+03  -0.05836   0.14591
     511.00   3.708421     0.1789E+03  -0.04657   0.11644
     513.00   3.710117     0.1732E+03  -0.06053   0.15133
     515.00   3.711807     0.1669E+03  -0.07650   0.19126
     517.00   3.713490     0.1488E+03  -0.12639   0.31596
     519.00   3.715167     0.1554E+03  -0.10771   0.26927
     521.00   3.716838     0.1702E+03  -0.06801   0.17002
     523.00   3.718502     0.1871E+03  -0.02710   0.06776
     525.00   3.720159     0.1960E+03  -0.00692   0.01729
     527.00   3.721811     0.1709E+03  -0.06635   0.16588
     529.00   3.723456     0.2003E+03   0.00262  -0.00656
     531.00   3.725095     0.2138E+03   0.03096  -0.07739
     533.00   3.726727     0.1865E+03  -0.02835   0.07088
     535.00   3.728354     0.2069E+03   0.01659  -0.04148
     537.00   3.729974     0.2050E+03   0.01257  -0.03143
     539.00   3.731589     0.2003E+03   0.00259  -0.00647
     541.00   3.733197     0.1972E+03  -0.00409   0.01023
     543.00   3.734800     0.2008E+03   0.00372  -0.00931
     545.00   3.736397     0.2052E+03   0.01308  -0.03270
     547.00   3.737987     0.1996E+03   0.00116  -0.00290
     549.00   3.739572     0.2028E+03   0.00790  -0.01975
     551.00   3.741152     0.1991E+03   0.00000   0.00000
     553.00   3.742725     0.2072E+03   0.01720  -0.04301
     555.00   3.744293     0.2111E+03   0.02544  -0.06360
     557.00   3.745855     0.2064E+03   0.01563  -0.03907
     559.00   3.747412     0.2008E+03   0.00359  -0.00896
     561.00   3.748963     0.2079E+03   0.01885  -0.04714
