age =    8.0    [Fe/H] =    0.00

wavele(nm) log wave(A)   Hlam       log(Hlam/Hlam(V))  Hlam(mag(V)) 
      89.50   2.951823     0.1251E-12 -15.24344  38.10860
      90.50   2.956649     0.2020E-12 -15.03533  37.58832
      91.50   2.961421     0.3166E-12 -14.84006  37.10016
      92.50   2.966142     0.5508E-10 -12.59965  31.49912
      93.50   2.970812     0.7692E-10 -12.45459  31.13649
      94.50   2.975432     0.1099E-09 -12.29979  30.74946
      95.50   2.980003     0.1649E-09 -12.12344  30.30860
      96.50   2.984527     0.2371E-09 -11.96577  29.91442
      97.50   2.989005     0.3158E-09 -11.84127  29.60316
      98.50   2.993436     0.4397E-09 -11.69749  29.24373
      99.50   2.997823     0.5920E-09 -11.56831  28.92077
     100.50   3.002166     0.8705E-09 -11.40083  28.50207
     101.50   3.006466     0.1173E-08 -11.27141  28.17852
     102.50   3.010724     0.1378E-08 -11.20124  28.00310
     103.50   3.014940     0.2167E-08 -11.00478  27.51194
     104.50   3.019116     0.2937E-08 -10.87273  27.18181
     105.50   3.023252     0.3795E-08 -10.76146  26.90364
     106.50   3.027350     0.4994E-08 -10.64218  26.60545
     107.50   3.031409     0.6694E-08 -10.51493  26.28732
     108.50   3.035430     0.8894E-08 -10.39152  25.97881
     109.50   3.039414     0.1120E-07 -10.29131  25.72827
     110.50   3.043362     0.7600E-07  -9.45983  23.64957
     111.50   3.047275     0.1436E-06  -9.18344  22.95860
     112.50   3.051152     0.2171E-06  -9.00397  22.50994
     113.50   3.054996     0.3198E-06  -8.83575  22.08937
     114.50   3.058805     0.4274E-06  -8.70976  21.77439
     115.50   3.062582     0.4928E-06  -8.64794  21.61984
     116.50   3.066326     0.6742E-06  -8.51182  21.27956
     117.50   3.070038     0.8628E-06  -8.40473  21.01183
     118.50   3.073718     0.9308E-06  -8.37174  20.92935
     119.50   3.077368     0.7130E-06  -8.48751  21.21877
     120.50   3.080987     0.7713E-06  -8.45341  21.13353
     121.50   3.084576     0.1564E-06  -9.14625  22.86563
     122.50   3.088136     0.1027E-05  -8.32903  20.82257
     123.50   3.091667     0.2216E-05  -7.99499  19.98746
     124.50   3.095169     0.3378E-05  -7.81193  19.52982
     125.50   3.098644     0.4216E-05  -7.71572  19.28930
     126.50   3.102091     0.4416E-05  -7.69557  19.23892
     127.50   3.105510     0.5593E-05  -7.59299  18.98248
     128.50   3.108903     0.6530E-05  -7.52571  18.81427
     129.50   3.112270     0.7929E-05  -7.44138  18.60345
     130.50   3.115611     0.8121E-05  -7.43102  18.57755
     131.50   3.118926     0.1032E-04  -7.32697  18.31742
     132.50   3.122216     0.1087E-04  -7.30451  18.26127
     133.50   3.125481     0.1211E-04  -7.25730  18.14324
     134.50   3.128722     0.1418E-04  -7.18903  17.97258
     135.50   3.131939     0.1625E-04  -7.12976  17.82439
     136.50   3.135133     0.1742E-04  -7.09948  17.74870
     137.50   3.138303     0.1871E-04  -7.06861  17.67152
     138.50   3.141450     0.2046E-04  -7.02972  17.57430
     139.50   3.144574     0.2301E-04  -6.97864  17.44661
     140.50   3.147676     0.2766E-04  -6.89877  17.24693
     141.50   3.150756     0.3112E-04  -6.84755  17.11888
     142.50   3.153815     0.3556E-04  -6.78968  16.97419
     143.50   3.156852     0.4171E-04  -6.72039  16.80098
     144.20   3.158965     0.5399E-04  -6.60834  16.52085
     144.70   3.160469     0.4843E-04  -6.65554  16.63885
     145.50   3.162863     0.5707E-04  -6.58419  16.46047
     146.50   3.165838     0.7187E-04  -6.48405  16.21013
     147.50   3.168792     0.8129E-04  -6.43060  16.07649
     148.50   3.171726     0.8763E-04  -6.39797  15.99491
     149.50   3.174641     0.1146E-03  -6.28124  15.70311
     150.50   3.177536     0.1387E-03  -6.19844  15.49610
     151.20   3.179552     0.1055E-03  -6.31738  15.79346
     151.70   3.180986     0.1343E-03  -6.21250  15.53124
     152.50   3.183270     0.3022E-03  -5.86027  14.65067
     153.50   3.186108     0.4780E-03  -5.66121  14.15302
     154.50   3.188928     0.4036E-03  -5.73470  14.33675
     155.50   3.191730     0.6400E-03  -5.53443  13.83608
     156.50   3.194514     0.6029E-03  -5.56038  13.90094
     157.50   3.197281     0.1068E-02  -5.31202  13.28006
     158.50   3.200029     0.1293E-02  -5.22919  13.07297
     159.50   3.202761     0.1507E-02  -5.16245  12.90614
     160.50   3.205475     0.1613E-02  -5.13293  12.83232
     161.50   3.208173     0.1773E-02  -5.09184  12.72960
     162.50   3.210853     0.1971E-02  -5.04592  12.61479
     163.50   3.213518     0.2304E-02  -4.97812  12.44531
     164.50   3.216166     0.3192E-02  -4.83651  12.09128
     165.50   3.218798     0.2034E-02  -5.03229  12.58071
     166.50   3.221414     0.3640E-02  -4.77947  11.94868
     167.20   3.223236     0.2570E-02  -4.93069  12.32673
     167.70   3.224533     0.8983E-02  -4.38721  10.96804
     168.50   3.226600     0.1014E-01  -4.33440  10.83599
     169.50   3.229170     0.1238E-01  -4.24791  10.61976
     170.50   3.231725     0.1347E-01  -4.21111  10.52778
     171.50   3.234264     0.1380E-01  -4.20080  10.50200
     172.50   3.236789     0.1712E-01  -4.10718  10.26795
     173.50   3.239300     0.2094E-01  -4.01957  10.04893
     174.50   3.241796     0.2803E-01  -3.89304   9.73260
     175.50   3.244277     0.3924E-01  -3.74685   9.36712
     176.50   3.246745     0.3431E-01  -3.80525   9.51312
     177.50   3.249198     0.3985E-01  -3.74014   9.35035
     178.50   3.251638     0.5162E-01  -3.62778   9.06946
     179.50   3.254065     0.6949E-01  -3.49870   8.74674
     180.50   3.256477     0.6665E-01  -3.51683   8.79206
     181.50   3.258877     0.6006E-01  -3.56203   8.90508
     182.50   3.261263     0.7545E-01  -3.46295   8.65738
     183.50   3.263636     0.7829E-01  -3.44689   8.61722
     184.50   3.265996     0.5753E-01  -3.58069   8.95172
     185.50   3.268344     0.8965E-01  -3.38807   8.47018
     186.50   3.270679     0.1101E+00  -3.29881   8.24704
     187.50   3.273001     0.1166E+00  -3.27380   8.18450
     188.50   3.275311     0.1248E+00  -3.24428   8.11071
     189.50   3.277609     0.1643E+00  -3.12501   7.81253
     190.50   3.279895     0.1574E+00  -3.14350   7.85875
     191.50   3.282169     0.1743E+00  -3.09923   7.74809
     192.50   3.284431     0.1616E+00  -3.13212   7.83030
     193.50   3.286681     0.1081E+00  -3.30670   8.26675
     194.50   3.288920     0.2228E+00  -2.99263   7.48158
     195.50   3.291147     0.2319E+00  -2.97525   7.43813
     196.70   3.293804     0.3051E+00  -2.85612   7.14031
     197.60   3.295787     0.2730E+00  -2.90447   7.26118
     198.40   3.297542     0.3522E+00  -2.79382   6.98455
     199.50   3.299943     0.3761E+00  -2.76532   6.91329
     200.50   3.302114     0.3584E+00  -2.78625   6.96564
     201.50   3.304275     0.3891E+00  -2.75061   6.87653
     202.50   3.306425     0.3061E+00  -2.85474   7.13685
     203.50   3.308564     0.4447E+00  -2.69255   6.73138
     204.50   3.310693     0.5194E+00  -2.62509   6.56272
     205.50   3.312812     0.5141E+00  -2.62960   6.57399
     206.50   3.314920     0.5058E+00  -2.63664   6.59159
     207.40   3.316809     0.5590E+00  -2.59317   6.48293
     207.80   3.317646     0.1772E+01  -2.09210   5.23026
     208.50   3.319106     0.2487E+01  -1.94495   4.86238
     209.50   3.321184     0.2258E+01  -1.98697   4.96743
     210.50   3.323252     0.2190E+01  -2.00013   5.00032
     211.50   3.325310     0.2585E+01  -1.92809   4.82024
     212.50   3.327359     0.2208E+01  -1.99662   4.99155
     213.50   3.329398     0.2133E+01  -2.01156   5.02889
     214.50   3.331427     0.2949E+01  -1.87089   4.67721
     215.50   3.333447     0.2865E+01  -1.88355   4.70887
     216.50   3.335458     0.2381E+01  -1.96394   4.90985
     217.50   3.337459     0.2402E+01  -1.96001   4.90002
     218.50   3.339452     0.3434E+01  -1.80477   4.51192
     219.50   3.341434     0.3233E+01  -1.83101   4.57751
     220.50   3.343409     0.3190E+01  -1.83689   4.59223
     221.50   3.345374     0.2245E+01  -1.98936   4.97340
     222.50   3.347330     0.2913E+01  -1.87629   4.69072
     223.50   3.349277     0.4199E+01  -1.71746   4.29366
     224.50   3.351216     0.3977E+01  -1.74102   4.35255
     225.50   3.353147     0.2790E+01  -1.89499   4.73749
     226.50   3.355068     0.2430E+01  -1.95499   4.88747
     227.50   3.356982     0.2734E+01  -1.90385   4.75964
     228.50   3.358886     0.4284E+01  -1.70874   4.27186
     229.50   3.360783     0.3299E+01  -1.82226   4.55565
     230.50   3.362671     0.4371E+01  -1.70000   4.25001
     231.50   3.364551     0.3457E+01  -1.80193   4.50484
     232.50   3.366423     0.2795E+01  -1.89423   4.73559
     233.50   3.368287     0.2293E+01  -1.98025   4.95062
     234.50   3.370143     0.1357E+01  -2.20793   5.51983
     235.50   3.371991     0.3196E+01  -1.83602   4.59005
     236.50   3.373831     0.1616E+01  -2.13208   5.33019
     237.50   3.375664     0.2258E+01  -1.98695   4.96737
     238.50   3.377488     0.1201E+01  -2.26106   5.65264
     239.50   3.379306     0.1599E+01  -2.13676   5.34191
     240.50   3.381115     0.1639E+01  -2.12614   5.31536
     241.50   3.382917     0.2027E+01  -2.03371   5.08428
     242.50   3.384712     0.4094E+01  -1.72851   4.32127
     243.50   3.386499     0.4214E+01  -1.71594   4.28984
     244.50   3.388279     0.5261E+01  -1.61951   4.04877
     245.50   3.390052     0.5768E+01  -1.57960   3.94899
     246.50   3.391817     0.4579E+01  -1.67981   4.19954
     247.50   3.393575     0.3952E+01  -1.74385   4.35963
     248.50   3.395326     0.1810E+01  -2.08298   5.20744
     249.50   3.397071     0.2680E+01  -1.91251   4.78128
     250.50   3.398808     0.4731E+01  -1.66571   4.16427
     251.30   3.400192     0.1611E+01  -2.13358   5.33395
     251.80   3.401056     0.1151E+01  -2.27965   5.69912
     252.50   3.402261     0.1357E+01  -2.20803   5.52008
     253.50   3.403978     0.2944E+01  -1.87170   4.67924
     254.50   3.405688     0.3176E+01  -1.83877   4.59693
     255.50   3.407391     0.7157E+01  -1.48587   3.71467
     256.50   3.409087     0.4831E+01  -1.65657   4.14142
     257.50   3.410777     0.6667E+01  -1.51670   3.79176
     258.50   3.412461     0.5664E+01  -1.58746   3.96865
     259.50   3.414137     0.4933E+01  -1.64746   4.11866
     260.50   3.415808     0.4100E+01  -1.72783   4.31957
     261.50   3.417472     0.3618E+01  -1.78212   4.45531
     262.50   3.419129     0.5347E+01  -1.61248   4.03119
     263.50   3.420781     0.1092E+02  -1.30256   3.25641
     264.50   3.422426     0.1514E+02  -1.16047   2.90117
     265.50   3.424065     0.2239E+02  -0.99048   2.47620
     266.50   3.425697     0.1310E+02  -1.22337   3.05842
     267.50   3.427324     0.1521E+02  -1.15838   2.89595
     268.50   3.428944     0.1822E+02  -1.08018   2.70045
     269.50   3.430559     0.1248E+02  -1.24453   3.11132
     270.50   3.432167     0.1607E+02  -1.13465   2.83662
     271.50   3.433770     0.1098E+02  -1.29986   3.24966
     272.50   3.435366     0.7981E+01  -1.43858   3.59645
     273.50   3.436957     0.1090E+02  -1.30336   3.25841
     274.50   3.438542     0.5567E+01  -1.59503   3.98757
     275.50   3.440122     0.8170E+01  -1.42837   3.57093
     276.50   3.441695     0.1133E+02  -1.28623   3.21557
     277.50   3.443263     0.1203E+02  -1.26039   3.15098
     278.50   3.444825     0.6482E+01  -1.52893   3.82233
     279.50   3.446382     0.2681E+01  -1.91240   4.78099
     280.50   3.447933     0.3347E+01  -1.81594   4.53986
     281.50   3.449478     0.1029E+02  -1.32824   3.32061
     282.50   3.451018     0.1617E+02  -1.13194   2.82985
     283.50   3.452553     0.1514E+02  -1.16049   2.90122
     284.50   3.454082     0.9819E+01  -1.34853   3.37133
     285.50   3.455606     0.4879E+01  -1.65226   4.13064
     286.50   3.457125     0.1500E+02  -1.16442   2.91106
     287.50   3.458638     0.2201E+02  -0.99810   2.49524
     288.50   3.460146     0.1945E+02  -1.05170   2.62925
     289.50   3.461648     0.2511E+02  -0.94069   2.35172
     291.00   3.463893     0.3570E+02  -0.78793   1.96983
     293.00   3.466868     0.3322E+02  -0.81925   2.04813
     295.00   3.469822     0.3291E+02  -0.82325   2.05813
     297.00   3.472756     0.3547E+02  -0.79071   1.97678
     299.00   3.475671     0.3775E+02  -0.76372   1.90929
     301.00   3.478566     0.3859E+02  -0.75410   1.88524
     303.00   3.481443     0.4170E+02  -0.72046   1.80114
     305.00   3.484300     0.4305E+02  -0.70660   1.76649
     307.00   3.487138     0.4220E+02  -0.71526   1.78816
     309.00   3.489959     0.3780E+02  -0.76308   1.90771
     311.00   3.492760     0.4445E+02  -0.69278   1.73194
     313.00   3.495544     0.4024E+02  -0.73594   1.83985
     315.00   3.498311     0.3987E+02  -0.73995   1.84987
     317.00   3.501059     0.4577E+02  -0.68002   1.70005
     319.00   3.503791     0.3904E+02  -0.74910   1.87274
     321.00   3.506505     0.4374E+02  -0.69971   1.74928
     323.00   3.509202     0.3713E+02  -0.77088   1.92719
     325.00   3.511883     0.5311E+02  -0.61547   1.53868
     327.00   3.514548     0.6127E+02  -0.55340   1.38349
     329.00   3.517196     0.5973E+02  -0.56445   1.41113
     331.00   3.519828     0.5544E+02  -0.59681   1.49202
     333.00   3.522444     0.5749E+02  -0.58105   1.45263
     335.00   3.525045     0.5606E+02  -0.59193   1.47982
     337.00   3.527630     0.4086E+02  -0.72935   1.82338
     339.00   3.530200     0.4801E+02  -0.65930   1.64824
     341.00   3.532754     0.5023E+02  -0.63962   1.59904
     343.00   3.535294     0.5381E+02  -0.60973   1.52432
     345.00   3.537819     0.6087E+02  -0.55620   1.39051
     347.00   3.540329     0.6338E+02  -0.53866   1.34665
     349.00   3.542825     0.7008E+02  -0.49500   1.23749
     351.00   3.545307     0.7351E+02  -0.47426   1.18564
     353.00   3.547775     0.6566E+02  -0.52329   1.30823
     355.00   3.550228     0.7326E+02  -0.47577   1.18941
     357.00   3.552668     0.5664E+02  -0.58753   1.46882
     359.00   3.555094     0.5967E+02  -0.56485   1.41213
     361.00   3.557507     0.7237E+02  -0.48107   1.20267
     363.00   3.559907     0.7376E+02  -0.47277   1.18192
     364.00   3.561101     0.7328E+02  -0.47565   1.18913
     365.00   3.562293     0.7776E+02  -0.44985   1.12463
     367.00   3.564666     0.8320E+02  -0.42048   1.05120
     369.00   3.567026     0.7409E+02  -0.47086   1.17715
     371.00   3.569374     0.7783E+02  -0.44946   1.12364
     373.00   3.571709     0.5104E+02  -0.63271   1.58177
     375.00   3.574031     0.5844E+02  -0.57393   1.43482
     377.00   3.576341     0.7674E+02  -0.45561   1.13903
     379.00   3.578639     0.7937E+02  -0.44096   1.10239
     381.00   3.580925     0.7477E+02  -0.46691   1.16726
     383.00   3.583199     0.4177E+02  -0.71977   1.79943
     385.00   3.585461     0.5887E+02  -0.57073   1.42681
     387.00   3.587711     0.5810E+02  -0.57642   1.44105
     389.00   3.589950     0.7278E+02  -0.47862   1.19654
     391.00   3.592177     0.8867E+02  -0.39284   0.98209
     393.00   3.594393     0.4153E+02  -0.72230   1.80575
     395.00   3.596597     0.7527E+02  -0.46401   1.16003
     397.00   3.598790     0.5134E+02  -0.63017   1.57542
     399.00   3.600973     0.1159E+03  -0.27643   0.69107
     401.00   3.603144     0.1286E+03  -0.23148   0.57870
     403.00   3.605305     0.1272E+03  -0.23602   0.59005
     405.00   3.607455     0.1218E+03  -0.25495   0.63738
     407.00   3.609594     0.1146E+03  -0.28147   0.70367
     409.00   3.611723     0.1427E+03  -0.18605   0.46513
     411.00   3.613842     0.1337E+03  -0.21457   0.53642
     413.00   3.615950     0.1304E+03  -0.22546   0.56364
     415.00   3.618048     0.1278E+03  -0.23394   0.58485
     417.00   3.620136     0.1297E+03  -0.22773   0.56934
     419.00   3.622214     0.1270E+03  -0.23691   0.59228
     421.00   3.624282     0.1287E+03  -0.23094   0.57735
     423.00   3.626340     0.1212E+03  -0.25714   0.64284
     425.00   3.628389     0.1306E+03  -0.22455   0.56137
     427.00   3.630428     0.1228E+03  -0.25159   0.62899
     429.00   3.632457     0.1143E+03  -0.28246   0.70616
     431.00   3.634477     0.9845E+02  -0.34739   0.86847
     433.00   3.636488     0.1469E+03  -0.17358   0.43396
     435.00   3.638489     0.1463E+03  -0.17536   0.43840
     437.00   3.640481     0.1600E+03  -0.13663   0.34157
     439.00   3.642465     0.1408E+03  -0.19210   0.48026
     441.00   3.644439     0.1499E+03  -0.16494   0.41235
     443.00   3.646404     0.1623E+03  -0.13042   0.32605
     445.00   3.648360     0.1638E+03  -0.12620   0.31551
     447.00   3.650307     0.1760E+03  -0.09504   0.23759
     449.00   3.652246     0.1812E+03  -0.08254   0.20636
     451.00   3.654176     0.2076E+03  -0.02329   0.05822
     453.00   3.656098     0.1804E+03  -0.08442   0.21106
     455.00   3.658011     0.1898E+03  -0.06242   0.15605
     457.00   3.659916     0.2066E+03  -0.02549   0.06373
     459.00   3.661813     0.1936E+03  -0.05362   0.13406
     461.00   3.663701     0.2003E+03  -0.03887   0.09717
     463.00   3.665581     0.1946E+03  -0.05150   0.12875
     465.00   3.667453     0.1978E+03  -0.04438   0.11095
     467.00   3.669317     0.2072E+03  -0.02414   0.06034
     469.00   3.671173     0.2024E+03  -0.03435   0.08587
     471.00   3.673021     0.1979E+03  -0.04416   0.11039
     473.00   3.674861     0.2050E+03  -0.02879   0.07198
     475.00   3.676694     0.2107E+03  -0.01700   0.04250
     477.00   3.678518     0.2061E+03  -0.02651   0.06627
     479.00   3.680336     0.2078E+03  -0.02299   0.05747
     481.00   3.682145     0.2081E+03  -0.02227   0.05567
     483.00   3.683947     0.2158E+03  -0.00653   0.01631
     485.00   3.685742     0.2050E+03  -0.02892   0.07230
     487.00   3.687529     0.1878E+03  -0.06699   0.16748
     489.00   3.689309     0.2092E+03  -0.01996   0.04990
     491.00   3.691082     0.2105E+03  -0.01740   0.04350
     493.00   3.692847     0.2068E+03  -0.02497   0.06242
     495.00   3.694605     0.2157E+03  -0.00680   0.01699
     497.00   3.696356     0.2073E+03  -0.02402   0.06004
     499.00   3.698101     0.1926E+03  -0.05585   0.13962
     501.00   3.699838     0.1814E+03  -0.08202   0.20506
     503.00   3.701568     0.1944E+03  -0.05201   0.13003
     505.00   3.703291     0.1946E+03  -0.05155   0.12887
     507.00   3.705008     0.2038E+03  -0.03148   0.07870
     509.00   3.706718     0.1923E+03  -0.05667   0.14168
     511.00   3.708421     0.1976E+03  -0.04492   0.11231
     513.00   3.710117     0.1913E+03  -0.05890   0.14724
     515.00   3.711807     0.1845E+03  -0.07464   0.18661
     517.00   3.713490     0.1648E+03  -0.12356   0.30889
     519.00   3.715167     0.1719E+03  -0.10540   0.26350
     521.00   3.716838     0.1879E+03  -0.06668   0.16669
     523.00   3.718502     0.2061E+03  -0.02651   0.06627
     525.00   3.720159     0.2157E+03  -0.00672   0.01680
     527.00   3.721811     0.1884E+03  -0.06545   0.16361
     529.00   3.723456     0.2205E+03   0.00273  -0.00683
     531.00   3.725095     0.2352E+03   0.03079  -0.07697
     533.00   3.726727     0.2054E+03  -0.02802   0.07005
     535.00   3.728354     0.2276E+03   0.01659  -0.04149
     537.00   3.729974     0.2256E+03   0.01268  -0.03169
     539.00   3.731589     0.2204E+03   0.00259  -0.00646
     541.00   3.733197     0.2171E+03  -0.00400   0.01000
     543.00   3.734800     0.2210E+03   0.00383  -0.00957
     545.00   3.736397     0.2259E+03   0.01333  -0.03332
     547.00   3.737987     0.2197E+03   0.00114  -0.00285
     549.00   3.739572     0.2230E+03   0.00777  -0.01942
     551.00   3.741152     0.2191E+03   0.00000   0.00000
     553.00   3.742725     0.2278E+03   0.01698  -0.04244
     555.00   3.744293     0.2321E+03   0.02515  -0.06288
     557.00   3.745855     0.2270E+03   0.01537  -0.03842
     559.00   3.747412     0.2209E+03   0.00348  -0.00871
     561.00   3.748963     0.2287E+03   0.01865  -0.04664
