age =   16.0    [Fe/H] =    0.00

wavele(nm) log wave(A)   Hlam       log(Hlam/Hlam(V))  Hlam(mag(V)) 
      89.50   2.951823     0.9910E-13 -15.08666  37.71665
      90.50   2.956649     0.1605E-12 -14.87738  37.19346
      91.50   2.961421     0.2511E-12 -14.68292  36.70731
      92.50   2.966142     0.4643E-11 -13.41598  33.53994
      93.50   2.970812     0.6517E-11 -13.26870  33.17175
      94.50   2.975432     0.9664E-11 -13.09758  32.74394
      95.50   2.980003     0.1484E-10 -12.91139  32.27848
      96.50   2.984527     0.2229E-10 -12.73467  31.83668
      97.50   2.989005     0.3016E-10 -12.60335  31.50838
      98.50   2.993436     0.4327E-10 -12.44660  31.11649
      99.50   2.997823     0.5997E-10 -12.30477  30.76193
     100.50   3.002166     0.9012E-10 -12.12791  30.31978
     101.50   3.006466     0.1247E-09 -11.98691  29.96728
     102.50   3.010724     0.1451E-09 -11.92107  29.80267
     103.50   3.014940     0.2429E-09 -11.69724  29.24311
     104.50   3.019116     0.3412E-09 -11.54968  28.87419
     105.50   3.023252     0.4336E-09 -11.44561  28.61403
     106.50   3.027350     0.6021E-09 -11.30309  28.25771
     107.50   3.031409     0.8206E-09 -11.16860  27.92149
     108.50   3.035430     0.1117E-08 -11.03472  27.58679
     109.50   3.039414     0.1401E-08 -10.93642  27.34106
     110.50   3.043362     0.3844E-08 -10.49793  26.24482
     111.50   3.047275     0.5981E-08 -10.30598  25.76495
     112.50   3.051152     0.8688E-08 -10.14383  25.35958
     113.50   3.054996     0.1292E-07  -9.97157  24.92892
     114.50   3.058805     0.1736E-07  -9.84321  24.60802
     115.50   3.062582     0.2100E-07  -9.76050  24.40126
     116.50   3.066326     0.2842E-07  -9.62918  24.07296
     117.50   3.070038     0.3717E-07  -9.51259  23.78147
     118.50   3.073718     0.4261E-07  -9.45325  23.63312
     119.50   3.077368     0.4066E-07  -9.47361  23.68403
     120.50   3.080987     0.4594E-07  -9.42056  23.55139
     121.50   3.084576     0.1570E-07  -9.88678  24.71695
     122.50   3.088136     0.6473E-07  -9.27161  23.17903
     123.50   3.091667     0.1157E-06  -9.01947  22.54868
     124.50   3.095169     0.1526E-06  -8.89920  22.24800
     125.50   3.098644     0.1832E-06  -8.81979  22.04948
     126.50   3.102091     0.2051E-06  -8.77074  21.92686
     127.50   3.105510     0.2500E-06  -8.68475  21.71187
     128.50   3.108903     0.2817E-06  -8.63303  21.58257
     129.50   3.112270     0.3440E-06  -8.54622  21.36556
     130.50   3.115611     0.3728E-06  -8.51126  21.27816
     131.50   3.118926     0.4659E-06  -8.41447  21.03617
     132.50   3.122216     0.4925E-06  -8.39035  20.97586
     133.50   3.125481     0.5561E-06  -8.33757  20.84391
     134.50   3.128722     0.6662E-06  -8.25911  20.64776
     135.50   3.131939     0.7931E-06  -8.18344  20.45860
     136.50   3.135133     0.8637E-06  -8.14636  20.36589
     137.50   3.138303     0.9545E-06  -8.10297  20.25742
     138.50   3.141450     0.1067E-05  -8.05474  20.13686
     139.50   3.144574     0.1216E-05  -7.99765  19.99414
     140.50   3.147676     0.1502E-05  -7.90611  19.76528
     141.50   3.150756     0.1738E-05  -7.84276  19.60689
     142.50   3.153815     0.2035E-05  -7.77424  19.43560
     143.50   3.156852     0.2454E-05  -7.69288  19.23221
     144.20   3.158965     0.3139E-05  -7.58596  18.96489
     144.70   3.160469     0.2885E-05  -7.62264  19.05660
     145.50   3.162863     0.3397E-05  -7.55168  18.87920
     146.50   3.165838     0.4388E-05  -7.44045  18.60113
     147.50   3.168792     0.5067E-05  -7.37802  18.44505
     148.50   3.171726     0.5526E-05  -7.34035  18.35088
     149.50   3.174641     0.7210E-05  -7.22482  18.06205
     150.50   3.177536     0.8866E-05  -7.13502  17.83756
     151.20   3.179552     0.6978E-05  -7.23903  18.09758
     151.70   3.180986     0.8816E-05  -7.13746  17.84365
     152.50   3.183270     0.2177E-04  -6.74483  16.86208
     153.50   3.186108     0.3723E-04  -6.51183  16.27957
     154.50   3.188928     0.3054E-04  -6.59789  16.49472
     155.50   3.191730     0.5216E-04  -6.36544  15.91359
     156.50   3.194514     0.4942E-04  -6.38881  15.97201
     157.50   3.197281     0.9973E-04  -6.08393  15.20983
     158.50   3.200029     0.1219E-03  -5.99685  14.99213
     159.50   3.202761     0.1439E-03  -5.92482  14.81204
     160.50   3.205475     0.1540E-03  -5.89530  14.73824
     161.50   3.208173     0.1692E-03  -5.85443  14.63609
     162.50   3.210853     0.1916E-03  -5.80027  14.50068
     163.50   3.213518     0.2303E-03  -5.72040  14.30101
     164.50   3.216166     0.3322E-03  -5.56140  13.90350
     165.50   3.218798     0.2204E-03  -5.73946  14.34865
     166.50   3.221414     0.3921E-03  -5.48940  13.72350
     167.20   3.223236     0.2738E-03  -5.64526  14.11315
     167.70   3.224533     0.1082E-02  -5.04845  12.62114
     168.50   3.226600     0.1221E-02  -4.99612  12.49029
     169.50   3.229170     0.1545E-02  -4.89370  12.23426
     170.50   3.231725     0.1662E-02  -4.86217  12.15543
     171.50   3.234264     0.1562E-02  -4.88912  12.22279
     172.50   3.236789     0.2055E-02  -4.76984  11.92459
     173.50   3.239300     0.2463E-02  -4.69135  11.72838
     174.50   3.241796     0.3442E-02  -4.54591  11.36478
     175.50   3.244277     0.4645E-02  -4.41578  11.03945
     176.50   3.246745     0.4413E-02  -4.43802  11.09506
     177.50   3.249198     0.4739E-02  -4.40706  11.01764
     178.50   3.251638     0.6355E-02  -4.27961  10.69903
     179.50   3.254065     0.7556E-02  -4.20446  10.51115
     180.50   3.256477     0.8325E-02  -4.16236  10.40590
     181.50   3.258877     0.7826E-02  -4.18921  10.47303
     182.50   3.261263     0.1007E-01  -4.07987  10.19967
     183.50   3.263636     0.1049E-01  -4.06177  10.15442
     184.50   3.265996     0.8119E-02  -4.17326  10.43316
     185.50   3.268344     0.1155E-01  -4.02008  10.05020
     186.50   3.270679     0.1367E-01  -3.94684   9.86710
     187.50   3.273001     0.1486E-01  -3.91074   9.77686
     188.50   3.275311     0.1605E-01  -3.87735   9.69337
     189.50   3.277609     0.2116E-01  -3.75728   9.39319
     190.50   3.279895     0.2068E-01  -3.76713   9.41782
     191.50   3.282169     0.2335E-01  -3.71446   9.28614
     192.50   3.284431     0.2385E-01  -3.70531   9.26328
     193.50   3.286681     0.1709E-01  -3.84998   9.62494
     194.50   3.288920     0.3089E-01  -3.59299   8.98246
     195.50   3.291147     0.3282E-01  -3.56658   8.91645
     196.70   3.293804     0.4246E-01  -3.45471   8.63678
     197.60   3.295787     0.4141E-01  -3.46566   8.66414
     198.40   3.297542     0.4800E-01  -3.40151   8.50378
     199.50   3.299943     0.4949E-01  -3.38822   8.47056
     200.50   3.302114     0.4878E-01  -3.39451   8.48627
     201.50   3.304275     0.5417E-01  -3.34894   8.37236
     202.50   3.306425     0.4461E-01  -3.43326   8.58316
     203.50   3.308564     0.6123E-01  -3.29575   8.23938
     204.50   3.310693     0.7073E-01  -3.23315   8.08287
     205.50   3.312812     0.7440E-01  -3.21117   8.02793
     206.50   3.314920     0.7473E-01  -3.20927   8.02318
     207.40   3.316809     0.8093E-01  -3.17462   7.93655
     207.80   3.317646     0.2243E+00  -2.73185   6.82962
     208.50   3.319106     0.3041E+00  -2.59974   6.49934
     209.50   3.321184     0.2814E+00  -2.63345   6.58363
     210.50   3.323252     0.2872E+00  -2.62457   6.56143
     211.50   3.325310     0.3466E+00  -2.54294   6.35734
     212.50   3.327359     0.3084E+00  -2.59365   6.48411
     213.50   3.329398     0.3183E+00  -2.57985   6.44964
     214.50   3.331427     0.4219E+00  -2.45755   6.14388
     215.50   3.333447     0.3886E+00  -2.49327   6.23318
     216.50   3.335458     0.3429E+00  -2.54758   6.36894
     217.50   3.337459     0.3339E+00  -2.55917   6.39793
     218.50   3.339452     0.4919E+00  -2.39084   5.97710
     219.50   3.341434     0.4632E+00  -2.41700   6.04249
     220.50   3.343409     0.4771E+00  -2.40415   6.01038
     221.50   3.345374     0.3528E+00  -2.53523   6.33809
     222.50   3.347330     0.4693E+00  -2.41132   6.02831
     223.50   3.349277     0.6941E+00  -2.24133   5.60332
     224.50   3.351216     0.6677E+00  -2.25819   5.64548
     225.50   3.353147     0.4909E+00  -2.39174   5.97934
     226.50   3.355068     0.4026E+00  -2.47792   6.19480
     227.50   3.356982     0.4461E+00  -2.43329   6.08324
     228.50   3.358886     0.7440E+00  -2.21117   5.52792
     229.50   3.360783     0.5685E+00  -2.32798   5.81994
     230.50   3.362671     0.7283E+00  -2.22046   5.55115
     231.50   3.364551     0.6178E+00  -2.29191   5.72978
     232.50   3.366423     0.5510E+00  -2.34163   5.85407
     233.50   3.368287     0.5127E+00  -2.37289   5.93223
     234.50   3.370143     0.3258E+00  -2.56978   6.42445
     235.50   3.371991     0.6388E+00  -2.27740   5.69350
     236.50   3.373831     0.3871E+00  -2.49491   6.23727
     237.50   3.375664     0.5024E+00  -2.38170   5.95424
     238.50   3.377488     0.3189E+00  -2.57904   6.44761
     239.50   3.379306     0.4019E+00  -2.47864   6.19660
     240.50   3.381115     0.4350E+00  -2.44429   6.11072
     241.50   3.382917     0.4585E+00  -2.42139   6.05346
     242.50   3.384712     0.8518E+00  -2.15241   5.38102
     243.50   3.386499     0.9013E+00  -2.12787   5.31967
     244.50   3.388279     0.1136E+01  -2.02754   5.06884
     245.50   3.390052     0.1253E+01  -1.98466   4.96164
     246.50   3.391817     0.9415E+00  -2.10893   5.27231
     247.50   3.393575     0.8201E+00  -2.16888   5.42219
     248.50   3.395326     0.3394E+00  -2.55208   6.38019
     249.50   3.397071     0.5304E+00  -2.35813   5.89531
     250.50   3.398808     0.9261E+00  -2.11610   5.29026
     251.30   3.400192     0.3942E+00  -2.48706   6.21765
     251.80   3.401056     0.2796E+00  -2.63613   6.59033
     252.50   3.402261     0.3236E+00  -2.57274   6.43186
     253.50   3.403978     0.7438E+00  -2.21126   5.52816
     254.50   3.405688     0.7767E+00  -2.19250   5.48126
     255.50   3.407391     0.1987E+01  -1.78450   4.46124
     256.50   3.409087     0.1310E+01  -1.96544   4.91359
     257.50   3.410777     0.1913E+01  -1.80114   4.50284
     258.50   3.412461     0.1648E+01  -1.86576   4.66440
     259.50   3.414137     0.1487E+01  -1.91043   4.77607
     260.50   3.415808     0.1286E+01  -1.97344   4.93361
     261.50   3.417472     0.1140E+01  -2.02597   5.06492
     262.50   3.419129     0.1649E+01  -1.86557   4.66392
     263.50   3.420781     0.3548E+01  -1.53271   3.83178
     264.50   3.422426     0.4719E+01  -1.40892   3.52231
     265.50   3.424065     0.7828E+01  -1.18908   2.97271
     266.50   3.425697     0.4275E+01  -1.45178   3.62945
     267.50   3.427324     0.4856E+01  -1.39644   3.49111
     268.50   3.428944     0.6173E+01  -1.29226   3.23064
     269.50   3.430559     0.3832E+01  -1.49935   3.74838
     270.50   3.432167     0.5287E+01  -1.35956   3.39890
     271.50   3.433770     0.3453E+01  -1.54456   3.86139
     272.50   3.435366     0.2125E+01  -1.75534   4.38834
     273.50   3.436957     0.3158E+01  -1.58333   3.95832
     274.50   3.438542     0.1850E+01  -1.81566   4.53914
     275.50   3.440122     0.2719E+01  -1.64838   4.12095
     276.50   3.441695     0.3819E+01  -1.50074   3.75186
     277.50   3.443263     0.4012E+01  -1.47940   3.69849
     278.50   3.444825     0.2213E+01  -1.73779   4.34446
     279.50   3.446382     0.9921E+00  -2.08617   5.21543
     280.50   3.447933     0.1224E+01  -1.99482   4.98705
     281.50   3.449478     0.3418E+01  -1.54897   3.87242
     282.50   3.451018     0.5031E+01  -1.38107   3.45267
     283.50   3.452553     0.4302E+01  -1.44911   3.62278
     284.50   3.454082     0.2410E+01  -1.70065   4.25161
     285.50   3.455606     0.1169E+01  -2.01487   5.03717
     286.50   3.457125     0.3764E+01  -1.50706   3.76765
     287.50   3.458638     0.6693E+01  -1.25712   3.14280
     288.50   3.460146     0.6377E+01  -1.27812   3.19529
     289.50   3.461648     0.9175E+01  -1.12016   2.80040
     291.00   3.463893     0.1423E+02  -0.92968   2.32419
     293.00   3.466868     0.1348E+02  -0.95319   2.38298
     295.00   3.469822     0.1333E+02  -0.95792   2.39481
     297.00   3.472756     0.1425E+02  -0.92884   2.32210
     299.00   3.475671     0.1559E+02  -0.88983   2.22457
     301.00   3.478566     0.1563E+02  -0.88866   2.22165
     303.00   3.481443     0.1769E+02  -0.83491   2.08728
     305.00   3.484300     0.1819E+02  -0.82292   2.05731
     307.00   3.487138     0.1787E+02  -0.83067   2.07667
     309.00   3.489959     0.1488E+02  -0.91000   2.27499
     311.00   3.492760     0.1901E+02  -0.80376   2.00941
     313.00   3.495544     0.1642E+02  -0.86727   2.16818
     315.00   3.498311     0.1672E+02  -0.85945   2.14862
     317.00   3.501059     0.1977E+02  -0.78675   1.96687
     319.00   3.503791     0.1651E+02  -0.86512   2.16279
     321.00   3.506505     0.1837E+02  -0.81853   2.04632
     323.00   3.509202     0.1569E+02  -0.88713   2.21782
     325.00   3.511883     0.2390E+02  -0.70426   1.76065
     327.00   3.514548     0.2800E+02  -0.63560   1.58900
     329.00   3.517196     0.2752E+02  -0.64306   1.60764
     331.00   3.519828     0.2457E+02  -0.69231   1.73078
     333.00   3.522444     0.2582E+02  -0.67084   1.67710
     335.00   3.525045     0.2489E+02  -0.68677   1.71693
     337.00   3.527630     0.1686E+02  -0.85600   2.13999
     339.00   3.530200     0.2038E+02  -0.77363   1.93408
     341.00   3.532754     0.2167E+02  -0.74686   1.86714
     343.00   3.535294     0.2398E+02  -0.70284   1.75709
     345.00   3.537819     0.2787E+02  -0.63762   1.59406
     347.00   3.540329     0.2946E+02  -0.61344   1.53359
     349.00   3.542825     0.3332E+02  -0.56008   1.40019
     351.00   3.545307     0.3527E+02  -0.53538   1.33846
     353.00   3.547775     0.3080E+02  -0.59412   1.48530
     355.00   3.550228     0.3421E+02  -0.54859   1.37148
     357.00   3.552668     0.2546E+02  -0.67683   1.69208
     359.00   3.555094     0.2753E+02  -0.64301   1.60753
     361.00   3.557507     0.3525E+02  -0.53555   1.33887
     363.00   3.559907     0.3593E+02  -0.52728   1.31821
     364.00   3.561101     0.3540E+02  -0.53376   1.33439
     365.00   3.562293     0.3699E+02  -0.51468   1.28671
     367.00   3.564666     0.4084E+02  -0.47170   1.17926
     369.00   3.567026     0.3526E+02  -0.53548   1.33871
     371.00   3.569374     0.3635E+02  -0.52219   1.30548
     373.00   3.571709     0.2074E+02  -0.76585   1.91462
     375.00   3.574031     0.2439E+02  -0.69549   1.73873
     377.00   3.576341     0.3504E+02  -0.53820   1.34549
     379.00   3.578639     0.3607E+02  -0.52560   1.31399
     381.00   3.580925     0.3223E+02  -0.57451   1.43628
     383.00   3.583199     0.1594E+02  -0.88033   2.20083
     385.00   3.585461     0.2298E+02  -0.72143   1.80356
     387.00   3.587711     0.2270E+02  -0.72670   1.81676
     389.00   3.589950     0.3225E+02  -0.57418   1.43545
     391.00   3.592177     0.4111E+02  -0.46883   1.17207
     393.00   3.594393     0.1830E+02  -0.82033   2.05083
     395.00   3.596597     0.3498E+02  -0.53895   1.34738
     397.00   3.598790     0.2374E+02  -0.70733   1.76834
     399.00   3.600973     0.5730E+02  -0.32462   0.81154
     401.00   3.603144     0.6431E+02  -0.27446   0.68615
     403.00   3.605305     0.6271E+02  -0.28540   0.71350
     405.00   3.607455     0.5980E+02  -0.30606   0.76516
     407.00   3.609594     0.5540E+02  -0.33922   0.84806
     409.00   3.611723     0.7271E+02  -0.22115   0.55286
     411.00   3.613842     0.6769E+02  -0.25224   0.63059
     413.00   3.615950     0.6454E+02  -0.27292   0.68229
     415.00   3.618048     0.6231E+02  -0.28816   0.72040
     417.00   3.620136     0.6388E+02  -0.27739   0.69348
     419.00   3.622214     0.6231E+02  -0.28818   0.72044
     421.00   3.624282     0.6310E+02  -0.28272   0.70679
     423.00   3.626340     0.5838E+02  -0.31645   0.79113
     425.00   3.628389     0.6436E+02  -0.27413   0.68533
     427.00   3.630428     0.6020E+02  -0.30313   0.75783
     429.00   3.632457     0.5619E+02  -0.33307   0.83267
     431.00   3.634477     0.4875E+02  -0.39479   0.98698
     433.00   3.636488     0.7552E+02  -0.20469   0.51172
     435.00   3.638489     0.7634E+02  -0.19999   0.49997
     437.00   3.640481     0.8264E+02  -0.16556   0.41389
     439.00   3.642465     0.7150E+02  -0.22841   0.57102
     441.00   3.644439     0.7647E+02  -0.19924   0.49811
     443.00   3.646404     0.8397E+02  -0.15861   0.39652
     445.00   3.648360     0.8520E+02  -0.15231   0.38077
     447.00   3.650307     0.9249E+02  -0.11666   0.29166
     449.00   3.652246     0.9576E+02  -0.10156   0.25391
     451.00   3.654176     0.1112E+03  -0.03680   0.09200
     453.00   3.656098     0.9529E+02  -0.10368   0.25919
     455.00   3.658011     0.1012E+03  -0.07766   0.19414
     457.00   3.659916     0.1107E+03  -0.03867   0.09667
     459.00   3.661813     0.1035E+03  -0.06766   0.16916
     461.00   3.663701     0.1073E+03  -0.05229   0.13072
     463.00   3.665581     0.1042E+03  -0.06470   0.16175
     465.00   3.667453     0.1057E+03  -0.05855   0.14638
     467.00   3.669317     0.1115E+03  -0.03566   0.08915
     469.00   3.671173     0.1086E+03  -0.04686   0.11714
     471.00   3.673021     0.1063E+03  -0.05615   0.14038
     473.00   3.674861     0.1098E+03  -0.04217   0.10543
     475.00   3.676694     0.1128E+03  -0.03043   0.07608
     477.00   3.678518     0.1097E+03  -0.04265   0.10664
     479.00   3.680336     0.1111E+03  -0.03714   0.09284
     481.00   3.682145     0.1120E+03  -0.03360   0.08399
     483.00   3.683947     0.1164E+03  -0.01695   0.04237
     485.00   3.685742     0.1114E+03  -0.03594   0.08986
     487.00   3.687529     0.1026E+03  -0.07138   0.17846
     489.00   3.689309     0.1132E+03  -0.02894   0.07234
     491.00   3.691082     0.1140E+03  -0.02580   0.06450
     493.00   3.692847     0.1116E+03  -0.03489   0.08722
     495.00   3.694605     0.1162E+03  -0.01741   0.04352
     497.00   3.696356     0.1111E+03  -0.03687   0.09217
     499.00   3.698101     0.1030E+03  -0.06980   0.17449
     501.00   3.699838     0.9637E+02  -0.09880   0.24699
     503.00   3.701568     0.1037E+03  -0.06698   0.16746
     505.00   3.703291     0.1035E+03  -0.06798   0.16994
     507.00   3.705008     0.1083E+03  -0.04818   0.12045
     509.00   3.706718     0.1020E+03  -0.07423   0.18557
     511.00   3.708421     0.1049E+03  -0.06205   0.15512
     513.00   3.710117     0.1015E+03  -0.07639   0.19099
     515.00   3.711807     0.9748E+02  -0.09383   0.23456
     517.00   3.713490     0.8577E+02  -0.14939   0.37348
     519.00   3.715167     0.9039E+02  -0.12661   0.31653
     521.00   3.716838     0.1004E+03  -0.08118   0.20296
     523.00   3.718502     0.1123E+03  -0.03218   0.08046
     525.00   3.720159     0.1185E+03  -0.00903   0.02258
     527.00   3.721811     0.1022E+03  -0.07326   0.18316
     529.00   3.723456     0.1215E+03   0.00170  -0.00425
     531.00   3.725095     0.1304E+03   0.03250  -0.08125
     533.00   3.726727     0.1127E+03  -0.03082   0.07705
     535.00   3.728354     0.1258E+03   0.01686  -0.04216
     537.00   3.729974     0.1244E+03   0.01208  -0.03020
     539.00   3.731589     0.1216E+03   0.00222  -0.00554
     541.00   3.733197     0.1198E+03  -0.00426   0.01065
     543.00   3.734800     0.1218E+03   0.00293  -0.00732
     545.00   3.736397     0.1242E+03   0.01128  -0.02820
     547.00   3.737987     0.1213E+03   0.00127  -0.00318
     549.00   3.739572     0.1235E+03   0.00895  -0.02236
     551.00   3.741152     0.1210E+03   0.00000   0.00000
     553.00   3.742725     0.1266E+03   0.01957  -0.04892
     555.00   3.744293     0.1291E+03   0.02831  -0.07077
     557.00   3.745855     0.1263E+03   0.01854  -0.04636
     559.00   3.747412     0.1225E+03   0.00537  -0.01342
     561.00   3.748963     0.1271E+03   0.02131  -0.05328
