age =   11.0    [Fe/H] =    0.25

wavele(nm) log wave(A)   Hlam       log(Hlam/Hlam(V))  Hlam(mag(V)) 
      90.50   2.956649     0.6413E-14 -16.32194  40.80486
      91.50   2.961421     0.1892E-12 -14.85201  37.13002
      92.50   2.966142     0.2114E-11 -13.80380  34.50949
      93.50   2.970812     0.2997E-11 -13.65231  34.13078
      94.50   2.975432     0.4536E-11 -13.47231  33.68077
      95.50   2.980003     0.6920E-11 -13.28885  33.22212
      96.50   2.984527     0.1068E-10 -13.10040  32.75101
      97.50   2.989005     0.1468E-10 -12.96220  32.40550
      98.50   2.993436     0.2105E-10 -12.80572  32.01429
      99.50   2.997823     0.2924E-10 -12.66304  31.65760
     100.50   3.002166     0.4446E-10 -12.48098  31.20245
     101.50   3.006466     0.6241E-10 -12.33372  30.83430
     102.50   3.010724     0.7488E-10 -12.25465  30.63662
     103.50   3.014940     0.1230E-09 -12.03923  30.09809
     104.50   3.019116     0.1733E-09 -11.89017  29.72542
     105.50   3.023252     0.2225E-09 -11.78160  29.45399
     106.50   3.027350     0.3107E-09 -11.63671  29.09178
     107.50   3.031409     0.4256E-09 -11.49993  28.74984
     108.50   3.035430     0.5775E-09 -11.36739  28.41849
     109.50   3.039414     0.7257E-09 -11.26825  28.17062
     110.50   3.043362     0.1318E-08 -11.00919  27.52297
     111.50   3.047275     0.1889E-08 -10.85267  27.13166
     112.50   3.051152     0.2661E-08 -10.70391  26.75977
     113.50   3.054996     0.3848E-08 -10.54369  26.35923
     114.50   3.058805     0.5158E-08 -10.41651  26.04126
     115.50   3.062582     0.6408E-08 -10.32223  25.80559
     116.50   3.066326     0.8642E-08 -10.19238  25.48094
     117.50   3.070038     0.1130E-07 -10.07595  25.18987
     118.50   3.073718     0.1351E-07  -9.99834  24.99585
     119.50   3.077368     0.1443E-07  -9.96975  24.92436
     120.50   3.080987     0.1757E-07  -9.88415  24.71038
     121.50   3.084576     0.9455E-08 -10.15333  25.38334
     122.50   3.088136     0.2598E-07  -9.71434  24.28585
     123.50   3.091667     0.3929E-07  -9.53471  23.83677
     124.50   3.095169     0.4955E-07  -9.43391  23.58478
     125.50   3.098644     0.5936E-07  -9.35545  23.38864
     126.50   3.102091     0.6913E-07  -9.28934  23.22336
     127.50   3.105510     0.8417E-07  -9.20383  23.00959
     128.50   3.108903     0.9541E-07  -9.14938  22.87344
     129.50   3.112270     0.1167E-06  -9.06183  22.65458
     130.50   3.115611     0.1311E-06  -9.01122  22.52805
     131.50   3.118926     0.1639E-06  -8.91437  22.28592
     132.50   3.122216     0.1784E-06  -8.87748  22.19370
     133.50   3.125481     0.2050E-06  -8.81726  22.04315
     134.50   3.128722     0.2490E-06  -8.73277  21.83193
     135.50   3.131939     0.3019E-06  -8.64915  21.62286
     136.50   3.135133     0.3364E-06  -8.60207  21.50516
     137.50   3.138303     0.3811E-06  -8.54794  21.36984
     138.50   3.141450     0.4332E-06  -8.49226  21.23064
     139.50   3.144574     0.5025E-06  -8.42786  21.06965
     140.50   3.147676     0.6210E-06  -8.33590  20.83976
     141.50   3.150756     0.7280E-06  -8.26684  20.66710
     142.50   3.153815     0.8611E-06  -8.19393  20.48482
     143.50   3.156852     0.1041E-05  -8.11145  20.27863
     144.20   3.158965     0.1293E-05  -8.01733  20.04333
     144.70   3.160469     0.1240E-05  -8.03556  20.08890
     145.50   3.162863     0.1454E-05  -7.96628  19.91570
     146.50   3.165838     0.1849E-05  -7.86212  19.65529
     147.50   3.168792     0.2148E-05  -7.79700  19.49251
     148.50   3.171726     0.2390E-05  -7.75051  19.37628
     149.50   3.174641     0.3057E-05  -7.64374  19.10935
     150.50   3.177536     0.3736E-05  -7.55658  18.89145
     151.20   3.179552     0.3200E-05  -7.62389  19.05972
     151.70   3.180986     0.3894E-05  -7.53854  18.84634
     152.50   3.183270     0.8744E-05  -7.18727  17.96816
     153.50   3.186108     0.1472E-04  -6.96109  17.40272
     154.50   3.188928     0.1237E-04  -7.03677  17.59192
     155.50   3.191730     0.2087E-04  -6.80943  17.02357
     156.50   3.194514     0.2016E-04  -6.82458  17.06146
     157.50   3.197281     0.4381E-04  -6.48744  16.21860
     158.50   3.200029     0.5345E-04  -6.40104  16.00259
     159.50   3.202761     0.6323E-04  -6.32804  15.82010
     160.50   3.205475     0.6717E-04  -6.30179  15.75449
     161.50   3.208173     0.7336E-04  -6.26352  15.65879
     162.50   3.210853     0.8354E-04  -6.20707  15.51769
     163.50   3.213518     0.1040E-03  -6.11191  15.27978
     164.50   3.216166     0.1507E-03  -5.95091  14.87728
     165.50   3.218798     0.1040E-03  -6.11177  15.27942
     166.50   3.221414     0.1816E-03  -5.86978  14.67444
     167.20   3.223236     0.1264E-03  -6.02713  15.06784
     167.70   3.224533     0.5321E-03  -5.40297  13.50743
     168.50   3.226600     0.5967E-03  -5.35326  13.38314
     169.50   3.229170     0.7675E-03  -5.24389  13.10972
     170.50   3.231725     0.8206E-03  -5.21485  13.03712
     171.50   3.234264     0.7826E-03  -5.23547  13.08867
     172.50   3.236789     0.1063E-02  -5.10225  12.75564
     173.50   3.239300     0.1284E-02  -5.02026  12.55064
     174.50   3.241796     0.1822E-02  -4.86854  12.17135
     175.50   3.244277     0.2441E-02  -4.74137  11.85341
     176.50   3.246745     0.2356E-02  -4.75677  11.89191
     177.50   3.249198     0.2492E-02  -4.73236  11.83089
     178.50   3.251638     0.3437E-02  -4.59276  11.48189
     179.50   3.254065     0.3985E-02  -4.52859  11.32147
     180.50   3.256477     0.4584E-02  -4.46776  11.16941
     181.50   3.258877     0.4261E-02  -4.49952  11.24880
     182.50   3.261263     0.5688E-02  -4.37406  10.93515
     183.50   3.263636     0.5825E-02  -4.36366  10.90915
     184.50   3.265996     0.4550E-02  -4.47095  11.17738
     185.50   3.268344     0.6350E-02  -4.32622  10.81555
     186.50   3.270679     0.7621E-02  -4.24696  10.61740
     187.50   3.273001     0.8293E-02  -4.21026  10.52566
     188.50   3.275311     0.9024E-02  -4.17356  10.43390
     189.50   3.277609     0.1208E-01  -4.04684  10.11710
     190.50   3.279895     0.1175E-01  -4.05887  10.14716
     191.50   3.282169     0.1341E-01  -4.00147  10.00368
     192.50   3.284431     0.1358E-01  -3.99604   9.99010
     193.50   3.286681     0.9263E-02  -4.16224  10.40560
     194.50   3.288920     0.1774E-01  -3.87995   9.69987
     195.50   3.291147     0.1920E-01  -3.84569   9.61422
     196.70   3.293804     0.2478E-01  -3.73480   9.33701
     197.60   3.295787     0.2473E-01  -3.73574   9.33935
     198.40   3.297542     0.2819E-01  -3.67892   9.19730
     199.50   3.299943     0.2864E-01  -3.67205   9.18012
     200.50   3.302114     0.2848E-01  -3.67441   9.18604
     201.50   3.304275     0.3182E-01  -3.62626   9.06564
     202.50   3.306425     0.2607E-01  -3.71281   9.28203
     203.50   3.308564     0.3585E-01  -3.57447   8.93617
     204.50   3.310693     0.4127E-01  -3.51336   8.78341
     205.50   3.312812     0.4414E-01  -3.48412   8.71030
     206.50   3.314920     0.4435E-01  -3.48207   8.70517
     207.40   3.316809     0.4725E-01  -3.45460   8.63650
     207.80   3.317646     0.1048E+00  -3.10880   7.77200
     208.50   3.319106     0.1357E+00  -2.99644   7.49110
     209.50   3.321184     0.1299E+00  -3.01521   7.53804
     210.50   3.323252     0.1345E+00  -3.00012   7.50031
     211.50   3.325310     0.1589E+00  -2.92797   7.31993
     212.50   3.327359     0.1444E+00  -2.96948   7.42369
     213.50   3.329398     0.1566E+00  -2.93415   7.33536
     214.50   3.331427     0.1913E+00  -2.84734   7.11836
     215.50   3.333447     0.1786E+00  -2.87706   7.19265
     216.50   3.335458     0.1694E+00  -2.90013   7.25033
     217.50   3.337459     0.1694E+00  -2.90015   7.25038
     218.50   3.339452     0.2189E+00  -2.78866   6.97166
     219.50   3.341434     0.2243E+00  -2.77821   6.94552
     220.50   3.343409     0.2303E+00  -2.76667   6.91667
     221.50   3.345374     0.1873E+00  -2.85635   7.14088
     222.50   3.347330     0.2343E+00  -2.75914   6.89786
     223.50   3.349277     0.3285E+00  -2.61248   6.53120
     224.50   3.351216     0.3256E+00  -2.61627   6.54068
     225.50   3.353147     0.2686E+00  -2.69981   6.74953
     226.50   3.355068     0.2212E+00  -2.78423   6.96057
     227.50   3.356982     0.2535E+00  -2.72507   6.81268
     228.50   3.358886     0.3781E+00  -2.55134   6.37835
     229.50   3.360783     0.3163E+00  -2.62893   6.57233
     230.50   3.362671     0.3543E+00  -2.57958   6.44895
     231.50   3.364551     0.3424E+00  -2.59441   6.48602
     232.50   3.366423     0.3318E+00  -2.60807   6.52018
     233.50   3.368287     0.3400E+00  -2.59753   6.49384
     234.50   3.370143     0.2294E+00  -2.76840   6.92099
     235.50   3.371991     0.3782E+00  -2.55121   6.37803
     236.50   3.373831     0.2700E+00  -2.69762   6.74404
     237.50   3.375664     0.3341E+00  -2.60507   6.51267
     238.50   3.377488     0.2395E+00  -2.74963   6.87407
     239.50   3.379306     0.2921E+00  -2.66351   6.65876
     240.50   3.381115     0.3263E+00  -2.61540   6.53849
     241.50   3.382917     0.3114E+00  -2.63570   6.58926
     242.50   3.384712     0.5072E+00  -2.42379   6.05947
     243.50   3.386499     0.5509E+00  -2.38795   5.96987
     244.50   3.388279     0.6789E+00  -2.29718   5.74296
     245.50   3.390052     0.7410E+00  -2.25915   5.64787
     246.50   3.391817     0.5777E+00  -2.36729   5.91824
     247.50   3.393575     0.5267E+00  -2.40741   6.01853
     248.50   3.395326     0.2253E+00  -2.77628   6.94070
     249.50   3.397071     0.3456E+00  -2.59036   6.47590
     250.50   3.398808     0.5884E+00  -2.35934   5.89836
     251.30   3.400192     0.2874E+00  -2.67043   6.67607
     251.80   3.401056     0.2014E+00  -2.82496   7.06241
     252.50   3.402261     0.2339E+00  -2.75997   6.89993
     253.50   3.403978     0.5319E+00  -2.40314   6.00785
     254.50   3.405688     0.5629E+00  -2.37855   5.94639
     255.50   3.407391     0.1359E+01  -1.99577   4.98943
     256.50   3.409087     0.9314E+00  -2.15984   5.39960
     257.50   3.410777     0.1345E+01  -2.00019   5.00048
     258.50   3.412461     0.1214E+01  -2.04470   5.11176
     259.50   3.414137     0.1142E+01  -2.07142   5.17856
     260.50   3.415808     0.1050E+01  -2.10777   5.26942
     261.50   3.417472     0.9369E+00  -2.15729   5.39321
     262.50   3.419129     0.1329E+01  -2.00548   5.01371
     263.50   3.420781     0.2719E+01  -1.69459   4.23647
     264.50   3.422426     0.3466E+01  -1.58920   3.97301
     265.50   3.424065     0.6067E+01  -1.34603   3.36508
     266.50   3.425697     0.3174E+01  -1.62733   4.06834
     267.50   3.427324     0.3556E+01  -1.57806   3.94515
     268.50   3.428944     0.4613E+01  -1.46498   3.66246
     269.50   3.430559     0.2847E+01  -1.67467   4.18666
     270.50   3.432167     0.4083E+01  -1.51803   3.79506
     271.50   3.433770     0.2697E+01  -1.69806   4.24514
     272.50   3.435366     0.1626E+01  -1.91776   4.79440
     273.50   3.436957     0.2384E+01  -1.75166   4.37915
     274.50   3.438542     0.1554E+01  -1.93751   4.84379
     275.50   3.440122     0.2201E+01  -1.78638   4.46595
     276.50   3.441695     0.3035E+01  -1.64688   4.11720
     277.50   3.443263     0.3241E+01  -1.61834   4.04585
     278.50   3.444825     0.1911E+01  -1.84781   4.61953
     279.50   3.446382     0.8834E+00  -2.18283   5.45707
     280.50   3.447933     0.1089E+01  -2.09184   5.22960
     281.50   3.449478     0.2886E+01  -1.66869   4.17174
     282.50   3.451018     0.4022E+01  -1.52449   3.81124
     283.50   3.452553     0.3416E+01  -1.59547   3.98868
     284.50   3.454082     0.1933E+01  -1.84272   4.60680
     285.50   3.455606     0.9198E+00  -2.16531   5.41328
     286.50   3.457125     0.2940E+01  -1.66060   4.15150
     287.50   3.458638     0.5423E+01  -1.39475   3.48687
     288.50   3.460146     0.5280E+01  -1.40636   3.51591
     289.50   3.461648     0.7638E+01  -1.24602   3.11504
     291.00   3.463893     0.1181E+02  -1.05683   2.64207
     293.00   3.466868     0.1050E+02  -1.10764   2.76910
     295.00   3.469822     0.9728E+01  -1.14094   2.85235
     297.00   3.472756     0.1023E+02  -1.11926   2.79815
     299.00   3.475671     0.1070E+02  -1.09966   2.74915
     301.00   3.478566     0.1022E+02  -1.11935   2.79838
     303.00   3.481443     0.1202E+02  -1.04909   2.62273
     305.00   3.484300     0.1235E+02  -1.03738   2.59345
     307.00   3.487138     0.1405E+02  -0.98122   2.45306
     309.00   3.489959     0.1262E+02  -1.02775   2.56939
     311.00   3.492760     0.1665E+02  -0.90757   2.26893
     313.00   3.495544     0.1458E+02  -0.96510   2.41275
     315.00   3.498311     0.1533E+02  -0.94354   2.35885
     317.00   3.501059     0.1785E+02  -0.87736   2.19339
     319.00   3.503791     0.1463E+02  -0.96377   2.40941
     321.00   3.506505     0.1623E+02  -0.91878   2.29696
     323.00   3.509202     0.1356E+02  -0.99665   2.49162
     325.00   3.511883     0.2116E+02  -0.80356   2.00890
     327.00   3.514548     0.2547E+02  -0.72298   1.80746
     329.00   3.517196     0.2524E+02  -0.72691   1.81726
     331.00   3.519828     0.2256E+02  -0.77561   1.93903
     333.00   3.522444     0.2386E+02  -0.75130   1.87825
     335.00   3.525045     0.2299E+02  -0.76736   1.91841
     337.00   3.527630     0.1571E+02  -0.93287   2.33218
     339.00   3.530200     0.1858E+02  -0.85992   2.14980
     341.00   3.532754     0.1938E+02  -0.84171   2.10429
     343.00   3.535294     0.2079E+02  -0.81114   2.02784
     345.00   3.537819     0.2318E+02  -0.76393   1.90983
     347.00   3.540329     0.2451E+02  -0.73966   1.84915
     349.00   3.542825     0.2855E+02  -0.67342   1.68354
     351.00   3.545307     0.3078E+02  -0.64072   1.60179
     353.00   3.547775     0.2632E+02  -0.70877   1.77194
     355.00   3.550228     0.3007E+02  -0.65089   1.62724
     357.00   3.552668     0.1943E+02  -0.84050   2.10125
     359.00   3.555094     0.2116E+02  -0.80356   2.00890
     361.00   3.557507     0.2874E+02  -0.67048   1.67620
     363.00   3.559907     0.3089E+02  -0.63910   1.59774
     364.00   3.561101     0.3142E+02  -0.63176   1.57940
     365.00   3.562293     0.3520E+02  -0.58240   1.45600
     367.00   3.564666     0.3927E+02  -0.53496   1.33739
     369.00   3.567026     0.3329E+02  -0.60668   1.51669
     371.00   3.569374     0.3428E+02  -0.59396   1.48491
     373.00   3.571709     0.1908E+02  -0.84849   2.12122
     375.00   3.574031     0.2244E+02  -0.77801   1.94502
     377.00   3.576341     0.3286E+02  -0.61226   1.53065
     379.00   3.578639     0.3373E+02  -0.60097   1.50241
     381.00   3.580925     0.2954E+02  -0.65852   1.64629
     383.00   3.583199     0.1459E+02  -0.96482   2.41206
     385.00   3.585461     0.2048E+02  -0.81771   2.04429
     387.00   3.587711     0.2064E+02  -0.81437   2.03593
     389.00   3.589950     0.3085E+02  -0.63972   1.59930
     391.00   3.592177     0.3964E+02  -0.53088   1.32719
     393.00   3.594393     0.1753E+02  -0.88532   2.21330
     395.00   3.596597     0.3309E+02  -0.60933   1.52332
     397.00   3.598790     0.2256E+02  -0.77570   1.93925
     399.00   3.600973     0.5646E+02  -0.37723   0.94306
     401.00   3.603144     0.6435E+02  -0.32043   0.80109
     403.00   3.605305     0.6295E+02  -0.32996   0.82489
     405.00   3.607455     0.5978E+02  -0.35241   0.88103
     407.00   3.609594     0.5478E+02  -0.39038   0.97595
     409.00   3.611723     0.7420E+02  -0.25858   0.64644
     411.00   3.613842     0.6914E+02  -0.28927   0.72318
     413.00   3.615950     0.6469E+02  -0.31815   0.79536
     415.00   3.618048     0.6263E+02  -0.33218   0.83044
     417.00   3.620136     0.6424E+02  -0.32115   0.80288
     419.00   3.622214     0.6365E+02  -0.32516   0.81289
     421.00   3.624282     0.6462E+02  -0.31863   0.79658
     423.00   3.626340     0.5789E+02  -0.36638   0.91594
     425.00   3.628389     0.6726E+02  -0.30121   0.75301
     427.00   3.630428     0.6281E+02  -0.33095   0.82738
     429.00   3.632457     0.5895E+02  -0.35849   0.89621
     431.00   3.634477     0.5199E+02  -0.41307   1.03268
     433.00   3.636488     0.8089E+02  -0.22109   0.55272
     435.00   3.638489     0.8312E+02  -0.20930   0.52324
     437.00   3.640481     0.9053E+02  -0.17221   0.43052
     439.00   3.642465     0.7686E+02  -0.24326   0.60815
     441.00   3.644439     0.8164E+02  -0.21707   0.54267
     443.00   3.646404     0.8914E+02  -0.17892   0.44731
     445.00   3.648360     0.9128E+02  -0.16861   0.42154
     447.00   3.650307     0.1000E+03  -0.12883   0.32208
     449.00   3.652246     0.1041E+03  -0.11174   0.27935
     451.00   3.654176     0.1235E+03  -0.03735   0.09337
     453.00   3.656098     0.1032E+03  -0.11520   0.28800
     455.00   3.658011     0.1103E+03  -0.08629   0.21573
     457.00   3.659916     0.1224E+03  -0.04122   0.10306
     459.00   3.661813     0.1140E+03  -0.07191   0.17979
     461.00   3.663701     0.1178E+03  -0.05800   0.14500
     463.00   3.665581     0.1135E+03  -0.07405   0.18512
     465.00   3.667453     0.1155E+03  -0.06643   0.16607
     467.00   3.669317     0.1231E+03  -0.03880   0.09699
     469.00   3.671173     0.1203E+03  -0.04874   0.12185
     471.00   3.673021     0.1163E+03  -0.06331   0.15827
     473.00   3.674861     0.1209E+03  -0.04653   0.11633
     475.00   3.676694     0.1246E+03  -0.03339   0.08348
     477.00   3.678518     0.1206E+03  -0.04759   0.11897
     479.00   3.680336     0.1227E+03  -0.04017   0.10043
     481.00   3.682145     0.1236E+03  -0.03687   0.09218
     483.00   3.683947     0.1299E+03  -0.01544   0.03860
     485.00   3.685742     0.1232E+03  -0.03831   0.09578
     487.00   3.687529     0.1130E+03  -0.07606   0.19016
     489.00   3.689309     0.1258E+03  -0.02932   0.07330
     491.00   3.691082     0.1266E+03  -0.02644   0.06611
     493.00   3.692847     0.1236E+03  -0.03695   0.09236
     495.00   3.694605     0.1289E+03  -0.01871   0.04678
     497.00   3.696356     0.1220E+03  -0.04268   0.10670
     499.00   3.698101     0.1122E+03  -0.07912   0.19780
     501.00   3.699838     0.1037E+03  -0.11340   0.28351
     503.00   3.701568     0.1129E+03  -0.07640   0.19101
     505.00   3.703291     0.1126E+03  -0.07733   0.19332
     507.00   3.705008     0.1183E+03  -0.05614   0.14034
     509.00   3.706718     0.1102E+03  -0.08668   0.21669
     511.00   3.708421     0.1143E+03  -0.07096   0.17739
     513.00   3.710117     0.1095E+03  -0.08943   0.22358
     515.00   3.711807     0.1051E+03  -0.10727   0.26816
     517.00   3.713490     0.9019E+02  -0.17382   0.43456
     519.00   3.715167     0.9584E+02  -0.14744   0.36861
     521.00   3.716838     0.1085E+03  -0.09350   0.23375
     523.00   3.718502     0.1242E+03  -0.03472   0.08680
     525.00   3.720159     0.1323E+03  -0.00727   0.01817
     527.00   3.721811     0.1121E+03  -0.07933   0.19833
     529.00   3.723456     0.1365E+03   0.00602  -0.01505
     531.00   3.725095     0.1484E+03   0.04233  -0.10584
     533.00   3.726727     0.1248E+03  -0.03294   0.08234
     535.00   3.728354     0.1418E+03   0.02262  -0.05655
     537.00   3.729974     0.1401E+03   0.01755  -0.04388
     539.00   3.731589     0.1361E+03   0.00497  -0.01243
     541.00   3.733197     0.1345E+03  -0.00011   0.00028
     543.00   3.734800     0.1371E+03   0.00808  -0.02021
     545.00   3.736397     0.1392E+03   0.01462  -0.03656
     547.00   3.737987     0.1356E+03   0.00320  -0.00801
     549.00   3.739572     0.1369E+03   0.00743  -0.01858
     551.00   3.741152     0.1346E+03   0.00000   0.00000
     553.00   3.742725     0.1425E+03   0.02486  -0.06215
     555.00   3.744293     0.1460E+03   0.03541  -0.08852
     557.00   3.745855     0.1429E+03   0.02619  -0.06547
     559.00   3.747412     0.1378E+03   0.01022  -0.02554
     561.00   3.748963     0.1433E+03   0.02728  -0.06821
     563.00   3.750508     0.1423E+03   0.02434  -0.06085
