age =   11.0    [Fe/H] =    0.00

wavele(nm) log wave(A)   Hlam       log(Hlam/Hlam(V))  Hlam(mag(V)) 
      89.50   2.951823     0.8149E-13 -15.31273  38.28182
      90.50   2.956649     0.1353E-12 -15.09240  37.73101
      91.50   2.961421     0.2126E-12 -14.89633  37.24083
      92.50   2.966142     0.1835E-10 -12.96009  32.40022
      93.50   2.970812     0.2567E-10 -12.81443  32.03607
      94.50   2.975432     0.3725E-10 -12.65272  31.63181
      95.50   2.980003     0.5645E-10 -12.47216  31.18039
      96.50   2.984527     0.8261E-10 -12.30680  30.76701
      97.50   2.989005     0.1107E-09 -12.17955  30.44886
      98.50   2.993436     0.1559E-09 -12.03092  30.07730
      99.50   2.997823     0.2126E-09 -11.89633  29.74083
     100.50   3.002166     0.3162E-09 -11.72380  29.30951
     101.50   3.006466     0.4306E-09 -11.58971  28.97429
     102.50   3.010724     0.5036E-09 -11.52174  28.80436
     103.50   3.014940     0.8144E-09 -11.31296  28.28240
     104.50   3.019116     0.1121E-08 -11.17403  27.93507
     105.50   3.023252     0.1441E-08 -11.06520  27.66301
     106.50   3.027350     0.1937E-08 -10.93676  27.34190
     107.50   3.031409     0.2619E-08 -10.80564  27.01409
     108.50   3.035430     0.3520E-08 -10.67723  26.69307
     109.50   3.039414     0.4430E-08 -10.57740  26.44349
     110.50   3.043362     0.2080E-07  -9.90581  24.76453
     111.50   3.047275     0.3624E-07  -9.66459  24.16149
     112.50   3.051152     0.5400E-07  -9.49146  23.72865
     113.50   3.054996     0.8014E-07  -9.31998  23.29995
     114.50   3.058805     0.1074E-06  -9.19262  22.98154
     115.50   3.062582     0.1262E-06  -9.12267  22.80666
     116.50   3.066326     0.1722E-06  -8.98767  22.46918
     117.50   3.070038     0.2225E-06  -8.87655  22.19137
     118.50   3.073718     0.2464E-06  -8.83220  22.08051
     119.50   3.077368     0.2076E-06  -8.90667  22.26668
     120.50   3.080987     0.2295E-06  -8.86303  22.15756
     121.50   3.084576     0.5495E-07  -9.48382  23.70954
     122.50   3.088136     0.3120E-06  -8.72971  21.82427
     123.50   3.091667     0.6191E-06  -8.43205  21.08012
     124.50   3.095169     0.8719E-06  -8.28334  20.70836
     125.50   3.098644     0.1062E-05  -8.19787  20.49467
     126.50   3.102091     0.1140E-05  -8.16684  20.41711
     127.50   3.105510     0.1412E-05  -8.07390  20.18476
     128.50   3.108903     0.1612E-05  -8.01651  20.04126
     129.50   3.112270     0.1964E-05  -7.93073  19.82683
     130.50   3.115611     0.2051E-05  -7.91184  19.77959
     131.50   3.118926     0.2580E-05  -7.81224  19.53060
     132.50   3.122216     0.2698E-05  -7.79277  19.48192
     133.50   3.125481     0.3015E-05  -7.74447  19.36117
     134.50   3.128722     0.3558E-05  -7.67256  19.18141
     135.50   3.131939     0.4139E-05  -7.60688  19.01720
     136.50   3.135133     0.4446E-05  -7.57586  18.93966
     137.50   3.138303     0.4813E-05  -7.54140  18.85351
     138.50   3.141450     0.5304E-05  -7.49923  18.74807
     139.50   3.144574     0.5985E-05  -7.44678  18.61696
     140.50   3.147676     0.7289E-05  -7.36112  18.40280
     141.50   3.150756     0.8294E-05  -7.30505  18.26262
     142.50   3.153815     0.9577E-05  -7.24258  18.10644
     143.50   3.156852     0.1140E-04  -7.16674  17.91685
     144.20   3.158965     0.1480E-04  -7.05365  17.63412
     144.70   3.160469     0.1328E-04  -7.10076  17.75189
     145.50   3.162863     0.1565E-04  -7.02924  17.57310
     146.50   3.165838     0.2011E-04  -6.92033  17.30081
     147.50   3.168792     0.2298E-04  -6.86254  17.15635
     148.50   3.171726     0.2477E-04  -6.82994  17.07486
     149.50   3.174641     0.3255E-04  -6.71127  16.77817
     150.50   3.177536     0.3982E-04  -6.62367  16.55918
     151.20   3.179552     0.3001E-04  -6.74660  16.86649
     151.70   3.180986     0.3856E-04  -6.63773  16.59433
     152.50   3.183270     0.9334E-04  -6.25376  15.63441
     153.50   3.186108     0.1546E-03  -6.03448  15.08619
     154.50   3.188928     0.1277E-03  -6.11779  15.29447
     155.50   3.191730     0.2118E-03  -5.89796  14.74491
     156.50   3.194514     0.1993E-03  -5.92426  14.81064
     157.50   3.197281     0.3734E-03  -5.65161  14.12902
     158.50   3.200029     0.4548E-03  -5.56596  13.91490
     159.50   3.202761     0.5331E-03  -5.49698  13.74245
     160.50   3.205475     0.5716E-03  -5.46674  13.66685
     161.50   3.208173     0.6285E-03  -5.42552  13.56379
     162.50   3.210853     0.7071E-03  -5.37431  13.43578
     163.50   3.213518     0.8307E-03  -5.30437  13.26092
     164.50   3.216166     0.1177E-02  -5.15312  12.88279
     165.50   3.218798     0.7567E-03  -5.34490  13.36226
     166.50   3.221414     0.1360E-02  -5.09017  12.72543
     167.20   3.223236     0.9555E-03  -5.24361  13.10902
     167.70   3.224533     0.3565E-02  -4.67171  11.67928
     168.50   3.226600     0.4027E-02  -4.61888  11.54721
     169.50   3.229170     0.5013E-02  -4.52371  11.30926
     170.50   3.231725     0.5418E-02  -4.48996  11.22491
     171.50   3.234264     0.5240E-02  -4.50449  11.26123
     172.50   3.236789     0.6683E-02  -4.39882  10.99705
     173.50   3.239300     0.8047E-02  -4.31821  10.79552
     174.50   3.241796     0.1104E-01  -4.18095  10.45237
     175.50   3.244277     0.1511E-01  -4.04460  10.11151
     176.50   3.246745     0.1384E-01  -4.08256  10.20639
     177.50   3.249198     0.1539E-01  -4.03647  10.09118
     178.50   3.251638     0.2023E-01  -3.91786   9.79465
     179.50   3.254065     0.2540E-01  -3.81891   9.54727
     180.50   3.256477     0.2622E-01  -3.80514   9.51285
     181.50   3.258877     0.2427E-01  -3.83870   9.59674
     182.50   3.261263     0.3072E-01  -3.73643   9.34109
     183.50   3.263636     0.3208E-01  -3.71752   9.29380
     184.50   3.265996     0.2432E-01  -3.83779   9.59448
     185.50   3.268344     0.3591E-01  -3.66863   9.17158
     186.50   3.270679     0.4299E-01  -3.59043   8.97608
     187.50   3.273001     0.4625E-01  -3.55869   8.89672
     188.50   3.275311     0.4968E-01  -3.52764   8.81909
     189.50   3.277609     0.6516E-01  -3.40980   8.52451
     190.50   3.279895     0.6327E-01  -3.42263   8.55657
     191.50   3.282169     0.7060E-01  -3.37503   8.43758
     192.50   3.284431     0.6949E-01  -3.38188   8.45469
     193.50   3.286681     0.4900E-01  -3.53358   8.83395
     194.50   3.288920     0.9225E-01  -3.25886   8.14715
     195.50   3.291147     0.9667E-01  -3.23852   8.09629
     196.70   3.293804     0.1261E+00  -3.12294   7.80736
     197.60   3.295787     0.1181E+00  -3.15168   7.87921
     198.40   3.297542     0.1439E+00  -3.06568   7.66421
     199.50   3.299943     0.1510E+00  -3.04495   7.61238
     200.50   3.302114     0.1466E+00  -3.05761   7.64401
     201.50   3.304275     0.1608E+00  -3.01749   7.54373
     202.50   3.306425     0.1303E+00  -3.10881   7.77204
     203.50   3.308564     0.1827E+00  -2.96199   7.40498
     204.50   3.310693     0.2123E+00  -2.89697   7.24242
     205.50   3.312812     0.2168E+00  -2.88768   7.21921
     206.50   3.314920     0.2160E+00  -2.88930   7.22326
     207.40   3.316809     0.2364E+00  -2.85014   7.12535
     207.80   3.317646     0.7365E+00  -2.35664   5.89161
     208.50   3.319106     0.1030E+01  -2.21100   5.52750
     209.50   3.321184     0.9401E+00  -2.25066   5.62665
     210.50   3.323252     0.9348E+00  -2.25310   5.63276
     211.50   3.325310     0.1116E+01  -2.17600   5.43999
     212.50   3.327359     0.9691E+00  -2.23746   5.59365
     213.50   3.329398     0.9608E+00  -2.24118   5.60294
     214.50   3.331427     0.1317E+01  -2.10438   5.26094
     215.50   3.333447     0.1247E+01  -2.12783   5.31957
     216.50   3.335458     0.1058E+01  -2.19913   5.49782
     217.50   3.337459     0.1048E+01  -2.20359   5.50898
     218.50   3.339452     0.1543E+01  -2.03531   5.08829
     219.50   3.341434     0.1438E+01  -2.06612   5.16529
     220.50   3.343409     0.1446E+01  -2.06364   5.15911
     221.50   3.345374     0.1029E+01  -2.21151   5.52877
     222.50   3.347330     0.1365E+01  -2.08877   5.22191
     223.50   3.349277     0.1996E+01  -1.92363   4.80907
     224.50   3.351216     0.1900E+01  -1.94508   4.86269
     225.50   3.353147     0.1349E+01  -2.09385   5.23461
     226.50   3.355068     0.1141E+01  -2.16656   5.41640
     227.50   3.356982     0.1272E+01  -2.11917   5.29792
     228.50   3.358886     0.2078E+01  -1.90624   4.76559
     229.50   3.360783     0.1577E+01  -2.02600   5.06501
     230.50   3.362671     0.2091E+01  -1.90355   4.75888
     231.50   3.364551     0.1676E+01  -1.99942   4.99854
     232.50   3.366423     0.1412E+01  -2.07395   5.18487
     233.50   3.368287     0.1211E+01  -2.14052   5.35130
     234.50   3.370143     0.7376E+00  -2.35601   5.89002
     235.50   3.371991     0.1628E+01  -2.01218   5.03044
     236.50   3.373831     0.8809E+00  -2.27888   5.69720
     237.50   3.375664     0.1193E+01  -2.14715   5.36788
     238.50   3.377488     0.6810E+00  -2.39064   5.97660
     239.50   3.379306     0.8863E+00  -2.27623   5.69057
     240.50   3.381115     0.9276E+00  -2.25648   5.64120
     241.50   3.382917     0.1076E+01  -2.19186   5.47965
     242.50   3.384712     0.2118E+01  -1.89786   4.74464
     243.50   3.386499     0.2203E+01  -1.88089   4.70222
     244.50   3.388279     0.2767E+01  -1.78183   4.45457
     245.50   3.390052     0.3047E+01  -1.73988   4.34970
     246.50   3.391817     0.2358E+01  -1.85134   4.62836
     247.50   3.393575     0.2031E+01  -1.91601   4.79003
     248.50   3.395326     0.8715E+00  -2.28354   5.70885
     249.50   3.397071     0.1342E+01  -2.09616   5.24041
     250.50   3.398808     0.2367E+01  -1.84954   4.62385
     251.30   3.400192     0.8786E+00  -2.28001   5.70001
     251.80   3.401056     0.6250E+00  -2.42791   6.06976
     252.50   3.402261     0.7303E+00  -2.36034   5.90086
     253.50   3.403978     0.1633E+01  -2.01089   5.02722
     254.50   3.405688     0.1738E+01  -1.98369   4.95922
     255.50   3.407391     0.4187E+01  -1.60195   4.00487
     256.50   3.409087     0.2789E+01  -1.77832   4.44580
     257.50   3.410777     0.3948E+01  -1.62742   4.06854
     258.50   3.412461     0.3363E+01  -1.69704   4.24261
     259.50   3.414137     0.2964E+01  -1.75197   4.37991
     260.50   3.415808     0.2490E+01  -1.82769   4.56923
     261.50   3.417472     0.2202E+01  -1.88092   4.70230
     262.50   3.419129     0.3225E+01  -1.71530   4.28825
     263.50   3.420781     0.6786E+01  -1.39219   3.48046
     264.50   3.422426     0.9281E+01  -1.25621   3.14052
     265.50   3.424065     0.1440E+02  -1.06536   2.66341
     266.50   3.425697     0.8161E+01  -1.31207   3.28017
     267.50   3.427324     0.9427E+01  -1.24944   3.12361
     268.50   3.428944     0.1157E+02  -1.16049   2.90123
     269.50   3.430559     0.7613E+01  -1.34229   3.35572
     270.50   3.432167     0.1006E+02  -1.22132   3.05331
     271.50   3.433770     0.6733E+01  -1.39562   3.48905
     272.50   3.435366     0.4533E+01  -1.56742   3.91854
     273.50   3.436957     0.6453E+01  -1.41408   3.53520
     274.50   3.438542     0.3462E+01  -1.68449   4.21123
     275.50   3.440122     0.5107E+01  -1.51564   3.78911
     276.50   3.441695     0.7133E+01  -1.37052   3.42630
     277.50   3.443263     0.7512E+01  -1.34803   3.37009
     278.50   3.444825     0.4076E+01  -1.61355   4.03387
     279.50   3.446382     0.1741E+01  -1.98305   4.95763
     280.50   3.447933     0.2164E+01  -1.88859   4.72146
     281.50   3.449478     0.6415E+01  -1.41663   3.54159
     282.50   3.451018     0.9874E+01  -1.22933   3.07332
     283.50   3.452553     0.8939E+01  -1.27254   3.18135
     284.50   3.454082     0.5375E+01  -1.49348   3.73369
     285.50   3.455606     0.2618E+01  -1.80585   4.51463
     286.50   3.457125     0.8404E+01  -1.29932   3.24829
     287.50   3.458638     0.1346E+02  -1.09484   2.73709
     288.50   3.460146     0.1212E+02  -1.14015   2.85038
     289.50   3.461648     0.1640E+02  -1.00886   2.52214
     291.00   3.463893     0.2408E+02  -0.84215   2.10538
     293.00   3.466868     0.2255E+02  -0.87069   2.17671
     295.00   3.469822     0.2231E+02  -0.87527   2.18817
     297.00   3.472756     0.2399E+02  -0.84372   2.10931
     299.00   3.475671     0.2579E+02  -0.81239   2.03098
     301.00   3.478566     0.2614E+02  -0.80658   2.01645
     303.00   3.481443     0.2880E+02  -0.76444   1.91111
     305.00   3.484300     0.2967E+02  -0.75155   1.87886
     307.00   3.487138     0.2908E+02  -0.76016   1.90039
     309.00   3.489959     0.2526E+02  -0.82144   2.05359
     311.00   3.492760     0.3075E+02  -0.73603   1.84007
     313.00   3.495544     0.2731E+02  -0.78756   1.96891
     315.00   3.498311     0.2728E+02  -0.78793   1.96983
     317.00   3.501059     0.3172E+02  -0.72251   1.80626
     319.00   3.503791     0.2682E+02  -0.79533   1.98833
     321.00   3.506505     0.2999E+02  -0.74679   1.86698
     323.00   3.509202     0.2548E+02  -0.81766   2.04416
     325.00   3.511883     0.3748E+02  -0.65005   1.62513
     327.00   3.514548     0.4354E+02  -0.58494   1.46236
     329.00   3.517196     0.4255E+02  -0.59495   1.48737
     331.00   3.519828     0.3884E+02  -0.63448   1.58620
     333.00   3.522444     0.4052E+02  -0.61617   1.54042
     335.00   3.525045     0.3934E+02  -0.62902   1.57256
     337.00   3.527630     0.2775E+02  -0.78052   1.95129
     339.00   3.530200     0.3303E+02  -0.70487   1.76218
     341.00   3.532754     0.3479E+02  -0.68242   1.70604
     343.00   3.535294     0.3774E+02  -0.64707   1.61767
     345.00   3.537819     0.4321E+02  -0.58821   1.47053
     347.00   3.540329     0.4528E+02  -0.56791   1.41978
     349.00   3.542825     0.5055E+02  -0.52011   1.30027
     351.00   3.545307     0.5320E+02  -0.49792   1.24480
     353.00   3.547775     0.4709E+02  -0.55088   1.37720
     355.00   3.550228     0.5248E+02  -0.50383   1.25957
     357.00   3.552668     0.3990E+02  -0.62281   1.55702
     359.00   3.555094     0.4245E+02  -0.59599   1.48997
     361.00   3.557507     0.5264E+02  -0.50247   1.25617
     363.00   3.559907     0.5363E+02  -0.49442   1.23604
     364.00   3.561101     0.5310E+02  -0.49875   1.24687
     365.00   3.562293     0.5606E+02  -0.47518   1.18795
     367.00   3.564666     0.6077E+02  -0.44014   1.10034
     369.00   3.567026     0.5346E+02  -0.49581   1.23951
     371.00   3.569374     0.5577E+02  -0.47739   1.19347
     373.00   3.571709     0.3451E+02  -0.68586   1.71464
     375.00   3.574031     0.3995E+02  -0.62228   1.55569
     377.00   3.576341     0.5438E+02  -0.48838   1.22094
     379.00   3.578639     0.5607E+02  -0.47510   1.18774
     381.00   3.580925     0.5159E+02  -0.51123   1.27807
     383.00   3.583199     0.2727E+02  -0.78810   1.97024
     385.00   3.585461     0.3884E+02  -0.63448   1.58621
     387.00   3.587711     0.3822E+02  -0.64148   1.60371
     389.00   3.589950     0.5081E+02  -0.51787   1.29468
     391.00   3.592177     0.6305E+02  -0.42412   1.06031
     393.00   3.594393     0.2894E+02  -0.76238   1.90596
     395.00   3.596597     0.5361E+02  -0.49459   1.23647
     397.00   3.598790     0.3651E+02  -0.66145   1.65363
     399.00   3.600973     0.8469E+02  -0.29599   0.73997
     401.00   3.603144     0.9434E+02  -0.24914   0.62286
     403.00   3.605305     0.9283E+02  -0.25612   0.64029
     405.00   3.607455     0.8870E+02  -0.27589   0.68972
     407.00   3.609594     0.8292E+02  -0.30516   0.76290
     409.00   3.611723     0.1056E+03  -0.20013   0.50033
     411.00   3.613842     0.9885E+02  -0.22885   0.57213
     413.00   3.615950     0.9537E+02  -0.24441   0.61102
     415.00   3.618048     0.9294E+02  -0.25562   0.63905
     417.00   3.620136     0.9471E+02  -0.24743   0.61858
     419.00   3.622214     0.9247E+02  -0.25781   0.64452
     421.00   3.624282     0.9376E+02  -0.25182   0.62955
     423.00   3.626340     0.8767E+02  -0.28098   0.70246
     425.00   3.628389     0.9522E+02  -0.24510   0.61275
     427.00   3.630428     0.8923E+02  -0.27330   0.68324
     429.00   3.632457     0.8312E+02  -0.30413   0.76033
     431.00   3.634477     0.7164E+02  -0.36867   0.92168
     433.00   3.636488     0.1090E+03  -0.18639   0.46598
     435.00   3.638489     0.1092E+03  -0.18551   0.46377
     437.00   3.640481     0.1188E+03  -0.14895   0.37236
     439.00   3.642465     0.1038E+03  -0.20762   0.51905
     441.00   3.644439     0.1108E+03  -0.17912   0.44779
     443.00   3.646404     0.1208E+03  -0.14172   0.35430
     445.00   3.648360     0.1222E+03  -0.13685   0.34212
     447.00   3.650307     0.1318E+03  -0.10375   0.25938
     449.00   3.652246     0.1360E+03  -0.09021   0.22554
     451.00   3.654176     0.1567E+03  -0.02868   0.07169
     453.00   3.656098     0.1354E+03  -0.09212   0.23029
     455.00   3.658011     0.1430E+03  -0.06844   0.17110
     457.00   3.659916     0.1560E+03  -0.03073   0.07683
     459.00   3.661813     0.1461E+03  -0.05927   0.14817
     461.00   3.663701     0.1512E+03  -0.04429   0.11073
     463.00   3.665581     0.1469E+03  -0.05677   0.14194
     465.00   3.667453     0.1492E+03  -0.05006   0.12514
     467.00   3.669317     0.1567E+03  -0.02876   0.07189
     469.00   3.671173     0.1529E+03  -0.03935   0.09839
     471.00   3.673021     0.1496E+03  -0.04890   0.12226
     473.00   3.674861     0.1548E+03  -0.03407   0.08517
     475.00   3.676694     0.1591E+03  -0.02227   0.05568
     477.00   3.678518     0.1553E+03  -0.03272   0.08179
     479.00   3.680336     0.1568E+03  -0.02845   0.07113
     481.00   3.682145     0.1574E+03  -0.02672   0.06681
     483.00   3.683947     0.1634E+03  -0.01057   0.02642
     485.00   3.685742     0.1557E+03  -0.03157   0.07892
     487.00   3.687529     0.1430E+03  -0.06853   0.17131
     489.00   3.689309     0.1586E+03  -0.02359   0.05896
     491.00   3.691082     0.1596E+03  -0.02081   0.05202
     493.00   3.692847     0.1566E+03  -0.02899   0.07248
     495.00   3.694605     0.1632E+03  -0.01100   0.02751
     497.00   3.696356     0.1566E+03  -0.02898   0.07245
     499.00   3.698101     0.1454E+03  -0.06130   0.15326
     501.00   3.699838     0.1365E+03  -0.08855   0.22139
     503.00   3.701568     0.1465E+03  -0.05783   0.14458
     505.00   3.703291     0.1465E+03  -0.05787   0.14467
     507.00   3.705008     0.1535E+03  -0.03781   0.09453
     509.00   3.706718     0.1447E+03  -0.06339   0.15847
     511.00   3.708421     0.1487E+03  -0.05147   0.12866
     513.00   3.710117     0.1440E+03  -0.06553   0.16383
     515.00   3.711807     0.1386E+03  -0.08203   0.20507
     517.00   3.713490     0.1230E+03  -0.13401   0.33504
     519.00   3.715167     0.1288E+03  -0.11401   0.28501
     521.00   3.716838     0.1418E+03  -0.07226   0.18064
     523.00   3.718502     0.1567E+03  -0.02882   0.07204
     525.00   3.720159     0.1645E+03  -0.00763   0.01906
     527.00   3.721811     0.1429E+03  -0.06871   0.17177
     529.00   3.723456     0.1683E+03   0.00227  -0.00568
     531.00   3.725095     0.1800E+03   0.03145  -0.07862
     533.00   3.726727     0.1565E+03  -0.02925   0.07314
     535.00   3.728354     0.1740E+03   0.01663  -0.04158
     537.00   3.729974     0.1723E+03   0.01234  -0.03086
     539.00   3.731589     0.1683E+03   0.00239  -0.00598
     541.00   3.733197     0.1658E+03  -0.00424   0.01061
     543.00   3.734800     0.1687E+03   0.00341  -0.00852
     545.00   3.736397     0.1723E+03   0.01250  -0.03126
     547.00   3.737987     0.1679E+03   0.00118  -0.00295
     549.00   3.739572     0.1706E+03   0.00822  -0.02056
     551.00   3.741152     0.1674E+03   0.00000   0.00000
     553.00   3.742725     0.1745E+03   0.01794  -0.04486
     555.00   3.744293     0.1779E+03   0.02635  -0.06588
     557.00   3.745855     0.1739E+03   0.01652  -0.04129
     559.00   3.747412     0.1690E+03   0.00410  -0.01025
     561.00   3.748963     0.1752E+03   0.01965  -0.04912
