age =   14.0    [Fe/H] =    0.25

wavele(nm) log wave(A)   Hlam       log(Hlam/Hlam(V))  Hlam(mag(V)) 
      90.50   2.956649     0.5091E-14 -16.32825  40.82062
      91.50   2.961421     0.1626E-12 -14.82398  37.05995
      92.50   2.966142     0.9342E-12 -14.06462  35.16156
      93.50   2.970812     0.1341E-11 -13.90766  34.76916
      94.50   2.975432     0.2050E-11 -13.72338  34.30845
      95.50   2.980003     0.3126E-11 -13.54007  33.85019
      96.50   2.984527     0.4947E-11 -13.34070  33.35176
      97.50   2.989005     0.6907E-11 -13.19580  32.98950
      98.50   2.993436     0.1003E-10 -13.03396  32.58491
      99.50   2.997823     0.1413E-10 -12.88507  32.21267
     100.50   3.002166     0.2133E-10 -12.70605  31.76513
     101.50   3.006466     0.3030E-10 -12.55365  31.38413
     102.50   3.010724     0.3739E-10 -12.46234  31.15585
     103.50   3.014940     0.6062E-10 -12.25245  30.63113
     104.50   3.019116     0.8602E-10 -12.10049  30.25123
     105.50   3.023252     0.1113E-09 -11.98874  29.97185
     106.50   3.027350     0.1574E-09 -11.83813  29.59533
     107.50   3.031409     0.2163E-09 -11.70000  29.25001
     108.50   3.035430     0.2951E-09 -11.56507  28.91267
     109.50   3.039414     0.3752E-09 -11.46086  28.65216
     110.50   3.043362     0.5603E-09 -11.28665  28.21663
     111.50   3.047275     0.7737E-09 -11.14651  27.86627
     112.50   3.051152     0.1076E-08 -11.00319  27.50797
     113.50   3.054996     0.1533E-08 -10.84955  27.12388
     114.50   3.058805     0.2051E-08 -10.72304  26.80759
     115.50   3.062582     0.2611E-08 -10.61833  26.54583
     116.50   3.066326     0.3481E-08 -10.49333  26.23333
     117.50   3.070038     0.4580E-08 -10.37421  25.93552
     118.50   3.073718     0.5621E-08 -10.28524  25.71309
     119.50   3.077368     0.6448E-08 -10.22562  25.56405
     120.50   3.080987     0.7906E-08 -10.13711  25.34277
     121.50   3.084576     0.5717E-08 -10.27787  25.69468
     122.50   3.088136     0.1207E-07  -9.95328  24.88319
     123.50   3.091667     0.1737E-07  -9.79538  24.48845
     124.50   3.095169     0.2183E-07  -9.69610  24.24026
     125.50   3.098644     0.2649E-07  -9.61201  24.03003
     126.50   3.102091     0.3178E-07  -9.53287  23.83217
     127.50   3.105510     0.3895E-07  -9.44462  23.61155
     128.50   3.108903     0.4514E-07  -9.38052  23.45129
     129.50   3.112270     0.5538E-07  -9.29170  23.22925
     130.50   3.115611     0.6445E-07  -9.22584  23.06460
     131.50   3.118926     0.8034E-07  -9.13014  22.82536
     132.50   3.122216     0.9075E-07  -9.07725  22.69312
     133.50   3.125481     0.1063E-06  -9.00863  22.52157
     134.50   3.128722     0.1298E-06  -8.92166  22.30416
     135.50   3.131939     0.1585E-06  -8.83492  22.08731
     136.50   3.135133     0.1815E-06  -8.77618  21.94045
     137.50   3.138303     0.2104E-06  -8.71204  21.78009
     138.50   3.141450     0.2439E-06  -8.64787  21.61967
     139.50   3.144574     0.2866E-06  -8.57782  21.44455
     140.50   3.147676     0.3520E-06  -8.48848  21.22121
     141.50   3.150756     0.4164E-06  -8.41554  21.03886
     142.50   3.153815     0.4948E-06  -8.34067  20.85167
     143.50   3.156852     0.5963E-06  -8.25964  20.64911
     144.20   3.158965     0.7183E-06  -8.17875  20.44687
     144.70   3.160469     0.7181E-06  -8.17889  20.44722
     145.50   3.162863     0.8364E-06  -8.11266  20.28165
     146.50   3.165838     0.1040E-05  -8.01799  20.04497
     147.50   3.168792     0.1214E-05  -7.95080  19.87701
     148.50   3.171726     0.1377E-05  -7.89629  19.74072
     149.50   3.174641     0.1717E-05  -7.80041  19.50104
     150.50   3.177536     0.2075E-05  -7.71800  19.29500
     151.20   3.179552     0.1932E-05  -7.74900  19.37251
     151.70   3.180986     0.2263E-05  -7.68032  19.20081
     152.50   3.183270     0.4356E-05  -7.39595  18.48987
     153.50   3.186108     0.6965E-05  -7.19218  17.98045
     154.50   3.188928     0.6110E-05  -7.24904  18.12261
     155.50   3.191730     0.9833E-05  -7.04238  17.60594
     156.50   3.194514     0.9749E-05  -7.04612  17.61531
     157.50   3.197281     0.2098E-04  -6.71336  16.78340
     158.50   3.200029     0.2538E-04  -6.63060  16.57650
     159.50   3.202761     0.2994E-04  -6.55887  16.39717
     160.50   3.205475     0.3178E-04  -6.53293  16.33233
     161.50   3.208173     0.3476E-04  -6.49397  16.23493
     162.50   3.210853     0.3956E-04  -6.43782  16.09456
     163.50   3.213518     0.5008E-04  -6.33542  15.83856
     164.50   3.216166     0.7177E-04  -6.17916  15.44789
     165.50   3.218798     0.5191E-04  -6.31983  15.79958
     166.50   3.221414     0.8754E-04  -6.09286  15.23216
     167.20   3.223236     0.6239E-04  -6.23997  15.59993
     167.70   3.224533     0.2456E-03  -5.64478  14.11195
     168.50   3.226600     0.2764E-03  -5.59349  13.98373
     169.50   3.229170     0.3563E-03  -5.48331  13.70827
     170.50   3.231725     0.3809E-03  -5.45422  13.63556
     171.50   3.234264     0.3670E-03  -5.47037  13.67592
     172.50   3.236789     0.5068E-03  -5.33027  13.32568
     173.50   3.239300     0.6109E-03  -5.24914  13.12284
     174.50   3.241796     0.8679E-03  -5.09663  12.74156
     175.50   3.244277     0.1143E-02  -4.97684  12.44210
     176.50   3.246745     0.1120E-02  -4.98596  12.46490
     177.50   3.249198     0.1171E-02  -4.96637  12.41594
     178.50   3.251638     0.1653E-02  -4.81686  12.04216
     179.50   3.254065     0.1868E-02  -4.76364  11.90909
     180.50   3.256477     0.2217E-02  -4.68925  11.72313
     181.50   3.258877     0.2038E-02  -4.72597  11.81492
     182.50   3.261263     0.2767E-02  -4.59314  11.48285
     183.50   3.263636     0.2815E-02  -4.58553  11.46381
     184.50   3.265996     0.2236E-02  -4.68557  11.71392
     185.50   3.268344     0.3048E-02  -4.55103  11.37757
     186.50   3.270679     0.3708E-02  -4.46588  11.16470
     187.50   3.273001     0.4022E-02  -4.43059  11.07647
     188.50   3.275311     0.4406E-02  -4.39104  10.97761
     189.50   3.277609     0.5929E-02  -4.26206  10.65515
     190.50   3.279895     0.5747E-02  -4.27561  10.68902
     191.50   3.282169     0.6668E-02  -4.21107  10.52767
     192.50   3.284431     0.6687E-02  -4.20983  10.52457
     193.50   3.286681     0.4485E-02  -4.38331  10.95827
     194.50   3.288920     0.8729E-02  -4.09413  10.23533
     195.50   3.291147     0.9617E-02  -4.05203  10.13008
     196.70   3.293804     0.1230E-01  -3.94499   9.86249
     197.60   3.295787     0.1246E-01  -3.93959   9.84897
     198.40   3.297542     0.1404E-01  -3.88762   9.71906
     199.50   3.299943     0.1418E-01  -3.88342   9.70855
     200.50   3.302114     0.1418E-01  -3.88338   9.70844
     201.50   3.304275     0.1594E-01  -3.83252   9.58130
     202.50   3.306425     0.1299E-01  -3.92146   9.80365
     203.50   3.308564     0.1793E-01  -3.78153   9.45382
     204.50   3.310693     0.2057E-01  -3.72191   9.30478
     205.50   3.312812     0.2222E-01  -3.68842   9.22104
     206.50   3.314920     0.2230E-01  -3.68675   9.21689
     207.40   3.316809     0.2352E-01  -3.66369   9.15923
     207.80   3.317646     0.4943E-01  -3.34110   8.35276
     208.50   3.319106     0.6307E-01  -3.23526   8.08816
     209.50   3.321184     0.6129E-01  -3.24766   8.11915
     210.50   3.323252     0.6343E-01  -3.23275   8.08188
     211.50   3.325310     0.7508E-01  -3.15956   7.89890
     212.50   3.327359     0.6897E-01  -3.19642   7.99106
     213.50   3.329398     0.7696E-01  -3.14883   7.87206
     214.50   3.331427     0.9016E-01  -3.08007   7.70018
     215.50   3.333447     0.8423E-01  -3.10962   7.77405
     216.50   3.335458     0.8100E-01  -3.12658   7.81646
     217.50   3.337459     0.8196E-01  -3.12146   7.80364
     218.50   3.339452     0.1015E+00  -3.02866   7.57165
     219.50   3.341434     0.1080E+00  -3.00168   7.50419
     220.50   3.343409     0.1110E+00  -2.98992   7.47481
     221.50   3.345374     0.9360E-01  -3.06381   7.65953
     222.50   3.347330     0.1147E+00  -2.97560   7.43900
     223.50   3.349277     0.1608E+00  -2.82883   7.07208
     224.50   3.351216     0.1617E+00  -2.82641   7.06602
     225.50   3.353147     0.1378E+00  -2.89586   7.23964
     226.50   3.355068     0.1110E+00  -2.98991   7.47477
     227.50   3.356982     0.1289E+00  -2.92483   7.31208
     228.50   3.358886     0.1882E+00  -2.76043   6.90108
     229.50   3.360783     0.1636E+00  -2.82131   7.05328
     230.50   3.362671     0.1709E+00  -2.80222   7.00555
     231.50   3.364551     0.1790E+00  -2.78226   6.95565
     232.50   3.366423     0.1776E+00  -2.78562   6.96404
     233.50   3.368287     0.1913E+00  -2.75325   6.88313
     234.50   3.370143     0.1309E+00  -2.91813   7.29533
     235.50   3.371991     0.1991E+00  -2.73609   6.84022
     236.50   3.373831     0.1529E+00  -2.85075   7.12687
     237.50   3.375664     0.1847E+00  -2.76872   6.92180
     238.50   3.377488     0.1428E+00  -2.88046   7.20114
     239.50   3.379306     0.1700E+00  -2.80462   7.01156
     240.50   3.381115     0.1953E+00  -2.74436   6.86090
     241.50   3.382917     0.1767E+00  -2.78777   6.96942
     242.50   3.384712     0.2768E+00  -2.59287   6.48218
     243.50   3.386499     0.3055E+00  -2.55013   6.37533
     244.50   3.388279     0.3771E+00  -2.45858   6.14646
     245.50   3.390052     0.4114E+00  -2.42080   6.05201
     246.50   3.391817     0.3169E+00  -2.53415   6.33539
     247.50   3.393575     0.2970E+00  -2.56228   6.40571
     248.50   3.395326     0.1253E+00  -2.93726   7.34314
     249.50   3.397071     0.1910E+00  -2.75410   6.88524
     250.50   3.398808     0.3258E+00  -2.52206   6.30516
     251.30   3.400192     0.1689E+00  -2.80751   7.01878
     251.80   3.401056     0.1197E+00  -2.95698   7.39245
     252.50   3.402261     0.1381E+00  -2.89484   7.23710
     253.50   3.403978     0.3197E+00  -2.53033   6.32582
     254.50   3.405688     0.3362E+00  -2.50852   6.27129
     255.50   3.407391     0.7947E+00  -2.13486   5.33715
     256.50   3.409087     0.5474E+00  -2.29680   5.74200
     257.50   3.410777     0.8002E+00  -2.13190   5.32974
     258.50   3.412461     0.7304E+00  -2.17148   5.42871
     259.50   3.414137     0.7032E+00  -2.18802   5.47004
     260.50   3.415808     0.6694E+00  -2.20941   5.52352
     261.50   3.417472     0.5980E+00  -2.25839   5.64596
     262.50   3.419129     0.8430E+00  -2.10923   5.27307
     263.50   3.420781     0.1711E+01  -1.80180   4.50450
     264.50   3.422426     0.2106E+01  -1.71154   4.27884
     265.50   3.424065     0.3820E+01  -1.45301   3.63252
     266.50   3.425697     0.1991E+01  -1.73606   4.34014
     267.50   3.427324     0.2178E+01  -1.69709   4.24274
     268.50   3.428944     0.2886E+01  -1.57481   3.93704
     269.50   3.430559     0.1713E+01  -1.80129   4.50323
     270.50   3.432167     0.2540E+01  -1.63018   4.07546
     271.50   3.433770     0.1676E+01  -1.81077   4.52694
     272.50   3.435366     0.9893E+00  -2.03975   5.09937
     273.50   3.436957     0.1455E+01  -1.87234   4.68084
     274.50   3.438542     0.1023E+01  -2.02501   5.06251
     275.50   3.440122     0.1426E+01  -1.88088   4.70219
     276.50   3.441695     0.1968E+01  -1.74107   4.35267
     277.50   3.443263     0.2122E+01  -1.70830   4.27074
     278.50   3.444825     0.1265E+01  -1.93300   4.83250
     279.50   3.446382     0.6146E+00  -2.24651   5.61627
     280.50   3.447933     0.7514E+00  -2.15923   5.39807
     281.50   3.449478     0.1887E+01  -1.75940   4.39850
     282.50   3.451018     0.2529E+01  -1.63219   4.08047
     283.50   3.452553     0.2065E+01  -1.72009   4.30024
     284.50   3.454082     0.1160E+01  -1.97058   4.92644
     285.50   3.455606     0.5512E+00  -2.29378   5.73444
     286.50   3.457125     0.1727E+01  -1.79771   4.49427
     287.50   3.458638     0.3241E+01  -1.52446   3.81115
     288.50   3.460146     0.3357E+01  -1.50910   3.77274
     289.50   3.461648     0.5004E+01  -1.33572   3.33931
     291.00   3.463893     0.8037E+01  -1.12998   2.82495
     293.00   3.466868     0.7147E+01  -1.18097   2.95244
     295.00   3.469822     0.6573E+01  -1.21731   3.04326
     297.00   3.472756     0.6855E+01  -1.19905   2.99762
     299.00   3.475671     0.7200E+01  -1.17776   2.94440
     301.00   3.478566     0.6812E+01  -1.20179   3.00448
     303.00   3.481443     0.8189E+01  -1.12187   2.80466
     305.00   3.484300     0.8426E+01  -1.10944   2.77359
     307.00   3.487138     0.9805E+01  -1.04362   2.60905
     309.00   3.489959     0.8680E+01  -1.09655   2.74138
     311.00   3.492760     0.1189E+02  -0.95994   2.39984
     313.00   3.495544     0.1025E+02  -1.02443   2.56107
     315.00   3.498311     0.1103E+02  -0.99231   2.48077
     317.00   3.501059     0.1300E+02  -0.92107   2.30268
     319.00   3.503791     0.1052E+02  -1.01291   2.53228
     321.00   3.506505     0.1162E+02  -0.96993   2.42483
     323.00   3.509202     0.9768E+01  -1.04529   2.61322
     325.00   3.511883     0.1556E+02  -0.84300   2.10751
     327.00   3.514548     0.1886E+02  -0.75954   1.89886
     329.00   3.517196     0.1885E+02  -0.75977   1.89942
     331.00   3.519828     0.1661E+02  -0.81481   2.03703
     333.00   3.522444     0.1763E+02  -0.78887   1.97217
     335.00   3.525045     0.1691E+02  -0.80686   2.01714
     337.00   3.527630     0.1127E+02  -0.98298   2.45744
     339.00   3.530200     0.1344E+02  -0.90674   2.26686
     341.00   3.532754     0.1408E+02  -0.88632   2.21581
     343.00   3.535294     0.1530E+02  -0.85038   2.12595
     345.00   3.537819     0.1703E+02  -0.80389   2.00972
     347.00   3.540329     0.1809E+02  -0.77759   1.94397
     349.00   3.542825     0.2134E+02  -0.70593   1.76482
     351.00   3.545307     0.2317E+02  -0.67015   1.67538
     353.00   3.547775     0.1960E+02  -0.74272   1.85681
     355.00   3.550228     0.2244E+02  -0.68412   1.71031
     357.00   3.552668     0.1418E+02  -0.88348   2.20871
     359.00   3.555094     0.1561E+02  -0.84165   2.10413
     361.00   3.557507     0.2163E+02  -0.70006   1.75015
     363.00   3.559907     0.2344E+02  -0.66509   1.66273
     364.00   3.561101     0.2386E+02  -0.65741   1.64354
     365.00   3.562293     0.2668E+02  -0.60886   1.52215
     367.00   3.564666     0.3012E+02  -0.55625   1.39062
     369.00   3.567026     0.2517E+02  -0.63414   1.58536
     371.00   3.569374     0.2565E+02  -0.62600   1.56499
     373.00   3.571709     0.1356E+02  -0.90268   2.25671
     375.00   3.574031     0.1611E+02  -0.82790   2.06974
     377.00   3.576341     0.2455E+02  -0.64501   1.61253
     379.00   3.578639     0.2525E+02  -0.63273   1.58183
     381.00   3.580925     0.2181E+02  -0.69649   1.74123
     383.00   3.583199     0.1049E+02  -1.01431   2.53576
     385.00   3.585461     0.1489E+02  -0.86210   2.15525
     387.00   3.587711     0.1504E+02  -0.85783   2.14457
     389.00   3.589950     0.2293E+02  -0.67469   1.68672
     391.00   3.592177     0.2998E+02  -0.55820   1.39550
     393.00   3.594393     0.1304E+02  -0.91975   2.29938
     395.00   3.596597     0.2509E+02  -0.63563   1.58907
     397.00   3.598790     0.1706E+02  -0.80303   2.00758
     399.00   3.600973     0.4371E+02  -0.39453   0.98631
     401.00   3.603144     0.5007E+02  -0.33552   0.83881
     403.00   3.605305     0.4868E+02  -0.34772   0.86929
     405.00   3.607455     0.4615E+02  -0.37090   0.92726
     407.00   3.609594     0.4203E+02  -0.41156   1.02891
     409.00   3.611723     0.5802E+02  -0.27146   0.67865
     411.00   3.613842     0.5380E+02  -0.30426   0.76066
     413.00   3.615950     0.5000E+02  -0.33611   0.84028
     415.00   3.618048     0.4811E+02  -0.35288   0.88220
     417.00   3.620136     0.4957E+02  -0.33982   0.84955
     419.00   3.622214     0.4918E+02  -0.34327   0.85818
     421.00   3.624282     0.4983E+02  -0.33754   0.84386
     423.00   3.626340     0.4427E+02  -0.38897   0.97242
     425.00   3.628389     0.5213E+02  -0.31794   0.79486
     427.00   3.630428     0.4872E+02  -0.34739   0.86847
     429.00   3.632457     0.4582E+02  -0.37401   0.93503
     431.00   3.634477     0.4067E+02  -0.42578   1.06444
     433.00   3.636488     0.6370E+02  -0.23093   0.57731
     435.00   3.638489     0.6585E+02  -0.21653   0.54133
     437.00   3.640481     0.7157E+02  -0.18037   0.45092
     439.00   3.642465     0.6041E+02  -0.25399   0.63497
     441.00   3.644439     0.6410E+02  -0.22820   0.57050
     443.00   3.646404     0.7023E+02  -0.18852   0.47130
     445.00   3.648360     0.7209E+02  -0.17718   0.44295
     447.00   3.650307     0.7929E+02  -0.13588   0.33969
     449.00   3.652246     0.8267E+02  -0.11774   0.29435
     451.00   3.654176     0.9852E+02  -0.04154   0.10384
     453.00   3.656098     0.8195E+02  -0.12154   0.30384
     455.00   3.658011     0.8787E+02  -0.09122   0.22804
     457.00   3.659916     0.9767E+02  -0.04533   0.11332
     459.00   3.661813     0.9095E+02  -0.07625   0.19064
     461.00   3.663701     0.9398E+02  -0.06203   0.15508
     463.00   3.665581     0.9053E+02  -0.07829   0.19572
     465.00   3.667453     0.9207E+02  -0.07094   0.17736
     467.00   3.669317     0.9834E+02  -0.04234   0.10586
     469.00   3.671173     0.9608E+02  -0.05245   0.13113
     471.00   3.673021     0.9289E+02  -0.06709   0.16773
     473.00   3.674861     0.9642E+02  -0.05092   0.12729
     475.00   3.676694     0.9936E+02  -0.03785   0.09462
     477.00   3.678518     0.9590E+02  -0.05323   0.13308
     479.00   3.680336     0.9775E+02  -0.04495   0.11237
     481.00   3.682145     0.9872E+02  -0.04065   0.10163
     483.00   3.683947     0.1038E+03  -0.01897   0.04743
     485.00   3.685742     0.9873E+02  -0.04063   0.10157
     487.00   3.687529     0.9067E+02  -0.07759   0.19399
     489.00   3.689309     0.1007E+03  -0.03204   0.08010
     491.00   3.691082     0.1014E+03  -0.02893   0.07234
     493.00   3.692847     0.9888E+02  -0.03995   0.09987
     495.00   3.694605     0.1030E+03  -0.02229   0.05573
     497.00   3.696356     0.9722E+02  -0.04730   0.11825
     499.00   3.698101     0.8938E+02  -0.08384   0.20961
     501.00   3.699838     0.8240E+02  -0.11917   0.29793
     503.00   3.701568     0.8988E+02  -0.08141   0.20353
     505.00   3.703291     0.8956E+02  -0.08295   0.20737
     507.00   3.705008     0.9402E+02  -0.06187   0.15468
     509.00   3.706718     0.8757E+02  -0.09272   0.23179
     511.00   3.708421     0.9085E+02  -0.07675   0.19188
     513.00   3.710117     0.8703E+02  -0.09538   0.23846
     515.00   3.711807     0.8344E+02  -0.11372   0.28430
     517.00   3.713490     0.7117E+02  -0.18279   0.45697
     519.00   3.715167     0.7591E+02  -0.15476   0.38690
     521.00   3.716838     0.8637E+02  -0.09872   0.24681
     523.00   3.718502     0.9967E+02  -0.03649   0.09122
     525.00   3.720159     0.1065E+03  -0.00772   0.01929
     527.00   3.721811     0.8983E+02  -0.08163   0.20408
     529.00   3.723456     0.1100E+03   0.00612  -0.01531
     531.00   3.725095     0.1198E+03   0.04333  -0.10832
     533.00   3.726727     0.1004E+03  -0.03336   0.08341
     535.00   3.728354     0.1144E+03   0.02317  -0.05793
     537.00   3.729974     0.1129E+03   0.01774  -0.04434
     539.00   3.731589     0.1097E+03   0.00524  -0.01309
     541.00   3.733197     0.1085E+03   0.00043  -0.00106
     543.00   3.734800     0.1105E+03   0.00825  -0.02062
     545.00   3.736397     0.1119E+03   0.01383  -0.03459
     547.00   3.737987     0.1092E+03   0.00327  -0.00817
     549.00   3.739572     0.1104E+03   0.00795  -0.01989
     551.00   3.741152     0.1084E+03   0.00000   0.00000
     553.00   3.742725     0.1151E+03   0.02592  -0.06479
     555.00   3.744293     0.1180E+03   0.03678  -0.09195
     557.00   3.745855     0.1156E+03   0.02772  -0.06931
     559.00   3.747412     0.1112E+03   0.01114  -0.02784
     561.00   3.748963     0.1156E+03   0.02799  -0.06999
     563.00   3.750508     0.1150E+03   0.02573  -0.06431
