age =    8.0    [Fe/H] =   -0.25

wavele(nm) log wave(A)   Hlam       log(Hlam/Hlam(V))  Hlam(mag(V)) 
      89.50   2.951823     0.1229E-12 -15.27966  38.19916
      90.50   2.956649     0.2346E-12 -14.99896  37.49739
      91.50   2.961421     0.3673E-12 -14.80421  37.01053
      92.50   2.966142     0.2830E-09 -11.91748  29.79370
      93.50   2.970812     0.3898E-09 -11.77833  29.44583
      94.50   2.975432     0.5477E-09 -11.63070  29.07674
      95.50   2.980003     0.8087E-09 -11.46141  28.65354
      96.50   2.984527     0.1140E-08 -11.31235  28.28088
      97.50   2.989005     0.1486E-08 -11.19731  27.99327
      98.50   2.993436     0.2063E-08 -11.05466  27.63665
      99.50   2.997823     0.2742E-08 -10.93121  27.32803
     100.50   3.002166     0.3957E-08 -10.77187  26.92967
     101.50   3.006466     0.5245E-08 -10.64949  26.62372
     102.50   3.010724     0.5903E-08 -10.59811  26.49527
     103.50   3.014940     0.9403E-08 -10.39594  25.98984
     104.50   3.019116     0.1264E-07 -10.26756  25.66891
     105.50   3.023252     0.1609E-07 -10.16271  25.40676
     106.50   3.027350     0.2094E-07 -10.04833  25.12082
     107.50   3.031409     0.2772E-07  -9.92646  24.81615
     108.50   3.035430     0.3647E-07  -9.80727  24.51818
     109.50   3.039414     0.4548E-07  -9.71136  24.27840
     110.50   3.043362     0.3678E-06  -8.80361  22.00902
     111.50   3.047275     0.7169E-06  -8.51376  21.28440
     112.50   3.051152     0.1090E-05  -8.33178  20.82945
     113.50   3.054996     0.1627E-05  -8.15773  20.39433
     114.50   3.058805     0.2136E-05  -8.03970  20.09924
     115.50   3.062582     0.2401E-05  -7.98881  19.97203
     116.50   3.066326     0.3181E-05  -7.86662  19.66654
     117.50   3.070038     0.3964E-05  -7.77105  19.42763
     118.50   3.073718     0.3980E-05  -7.76929  19.42322
     119.50   3.077368     0.2708E-05  -7.93650  19.84124
     120.50   3.080987     0.2433E-05  -7.98304  19.95761
     121.50   3.084576     0.4251E-06  -8.74074  21.85186
     122.50   3.088136     0.3140E-05  -7.87228  19.68069
     123.50   3.091667     0.8351E-05  -7.44746  18.61864
     124.50   3.095169     0.1525E-04  -7.18599  17.96497
     125.50   3.098644     0.2125E-04  -7.04177  17.60443
     126.50   3.102091     0.2337E-04  -7.00056  17.50139
     127.50   3.105510     0.3129E-04  -6.87384  17.18459
     128.50   3.108903     0.3952E-04  -6.77236  16.93089
     129.50   3.112270     0.4796E-04  -6.68834  16.72085
     130.50   3.115611     0.5107E-04  -6.66108  16.65270
     131.50   3.118926     0.6628E-04  -6.54782  16.36956
     132.50   3.122216     0.7333E-04  -6.50393  16.25982
     133.50   3.125481     0.8210E-04  -6.45487  16.13718
     134.50   3.128722     0.9712E-04  -6.38189  15.95472
     135.50   3.131939     0.1095E-03  -6.32970  15.82425
     136.50   3.135133     0.1209E-03  -6.28669  15.71674
     137.50   3.138303     0.1297E-03  -6.25627  15.64068
     138.50   3.141450     0.1410E-03  -6.22005  15.55013
     139.50   3.144574     0.1595E-03  -6.16649  15.41622
     140.50   3.147676     0.1874E-03  -6.09650  15.24124
     141.50   3.150756     0.2101E-03  -6.04676  15.11690
     142.50   3.153815     0.2344E-03  -5.99921  14.99802
     143.50   3.156852     0.2687E-03  -5.93996  14.84990
     144.20   3.158965     0.3437E-03  -5.83303  14.58258
     144.70   3.160469     0.3128E-03  -5.87390  14.68476
     145.50   3.162863     0.3678E-03  -5.80360  14.50901
     146.50   3.165838     0.4401E-03  -5.72566  14.31414
     147.50   3.168792     0.4934E-03  -5.67601  14.19002
     148.50   3.171726     0.5347E-03  -5.64110  14.10274
     149.50   3.174641     0.6870E-03  -5.53223  13.83058
     150.50   3.177536     0.8155E-03  -5.45777  13.64442
     151.20   3.179552     0.6611E-03  -5.54895  13.87238
     151.70   3.180986     0.7990E-03  -5.46669  13.66673
     152.50   3.183270     0.1523E-02  -5.18663  12.96658
     153.50   3.186108     0.2203E-02  -5.02612  12.56530
     154.50   3.188928     0.1972E-02  -5.07441  12.68602
     155.50   3.191730     0.2808E-02  -4.92080  12.30201
     156.50   3.194514     0.2681E-02  -4.94100  12.35250
     157.50   3.197281     0.4332E-02  -4.73252  11.83130
     158.50   3.200029     0.5152E-02  -4.65723  11.64307
     159.50   3.202761     0.5959E-02  -4.59403  11.48508
     160.50   3.205475     0.6289E-02  -4.57065  11.42663
     161.50   3.208173     0.7020E-02  -4.52290  11.30726
     162.50   3.210853     0.7509E-02  -4.49366  11.23415
     163.50   3.213518     0.8951E-02  -4.41736  11.04340
     164.50   3.216166     0.1195E-01  -4.29197  10.72992
     165.50   3.218798     0.7879E-02  -4.47272  11.18181
     166.50   3.221414     0.1355E-01  -4.23732  10.59329
     167.20   3.223236     0.9855E-02  -4.37555  10.93887
     167.70   3.224533     0.4343E-01  -3.73145   9.32861
     168.50   3.226600     0.4447E-01  -3.72118   9.30295
     169.50   3.229170     0.4817E-01  -3.68643   9.21607
     170.50   3.231725     0.5827E-01  -3.60375   9.00937
     171.50   3.234264     0.8361E-01  -3.44696   8.61739
     172.50   3.236789     0.1016E+00  -3.36219   8.40548
     173.50   3.239300     0.1357E+00  -3.23665   8.09161
     174.50   3.241796     0.1594E+00  -3.16682   7.91705
     175.50   3.244277     0.2379E+00  -2.99276   7.48190
     176.50   3.246745     0.1802E+00  -3.11348   7.78369
     177.50   3.249198     0.2277E+00  -3.01178   7.52945
     178.50   3.251638     0.2910E+00  -2.90538   7.26345
     179.50   3.254065     0.4282E+00  -2.73759   6.84398
     180.50   3.256477     0.4041E+00  -2.76268   6.90669
     181.50   3.258877     0.3560E+00  -2.81779   7.04448
     182.50   3.261263     0.4252E+00  -2.74059   6.85147
     183.50   3.263636     0.4330E+00  -2.73275   6.83186
     184.50   3.265996     0.2584E+00  -2.95693   7.39232
     185.50   3.268344     0.4940E+00  -2.67551   6.68877
     186.50   3.270679     0.6665E+00  -2.54541   6.36352
     187.50   3.273001     0.6627E+00  -2.54791   6.36978
     188.50   3.275311     0.7000E+00  -2.52409   6.31022
     189.50   3.277609     0.9216E+00  -2.40469   6.01173
     190.50   3.279895     0.8594E+00  -2.43504   6.08760
     191.50   3.282169     0.9668E+00  -2.38389   5.95972
     192.50   3.284431     0.7909E+00  -2.47108   6.17771
     193.50   3.286681     0.3867E+00  -2.78189   6.95473
     194.50   3.288920     0.1148E+01  -2.30926   5.77314
     195.50   3.291147     0.1211E+01  -2.28602   5.71504
     196.70   3.293804     0.1583E+01  -2.16978   5.42445
     197.60   3.295787     0.1333E+01  -2.24437   5.61092
     198.40   3.297542     0.1702E+01  -2.13830   5.34574
     199.50   3.299943     0.1837E+01  -2.10506   5.26265
     200.50   3.302114     0.1660E+01  -2.14911   5.37278
     201.50   3.304275     0.1809E+01  -2.11187   5.27969
     202.50   3.306425     0.1319E+01  -2.24882   5.62206
     203.50   3.308564     0.2050E+01  -2.05748   5.14371
     204.50   3.310693     0.2389E+01  -1.99093   4.97734
     205.50   3.312812     0.2271E+01  -2.01294   5.03236
     206.50   3.314920     0.2153E+01  -2.03626   5.09066
     207.40   3.316809     0.2509E+01  -1.96964   4.92409
     207.80   3.317646     0.5664E+01  -1.61610   4.04026
     208.50   3.319106     0.7124E+01  -1.51648   3.79119
     209.50   3.321184     0.6451E+01  -1.55961   3.89902
     210.50   3.323252     0.6032E+01  -1.58876   3.97191
     211.50   3.325310     0.7057E+01  -1.52057   3.80144
     212.50   3.327359     0.5945E+01  -1.59508   3.98771
     213.50   3.329398     0.5612E+01  -1.62009   4.05024
     214.50   3.331427     0.7586E+01  -1.48918   3.72296
     215.50   3.333447     0.7469E+01  -1.49593   3.73981
     216.50   3.335458     0.6212E+01  -1.57599   3.93998
     217.50   3.337459     0.6366E+01  -1.56532   3.91330
     218.50   3.339452     0.8482E+01  -1.44070   3.60175
     219.50   3.341434     0.8412E+01  -1.44431   3.61077
     220.50   3.343409     0.8065E+01  -1.46264   3.65659
     221.50   3.345374     0.5912E+01  -1.59751   3.99377
     222.50   3.347330     0.7238E+01  -1.50963   3.77407
     223.50   3.349277     0.1001E+02  -1.36880   3.42199
     224.50   3.351216     0.9424E+01  -1.39496   3.48740
     225.50   3.353147     0.6744E+01  -1.54028   3.85071
     226.50   3.355068     0.6146E+01  -1.58061   3.95153
     227.50   3.356982     0.6812E+01  -1.53596   3.83991
     228.50   3.358886     0.9773E+01  -1.37918   3.44796
     229.50   3.360783     0.7823E+01  -1.47583   3.68958
     230.50   3.362671     0.9977E+01  -1.37020   3.42550
     231.50   3.364551     0.8268E+01  -1.45182   3.62955
     232.50   3.366423     0.6569E+01  -1.55168   3.87921
     233.50   3.368287     0.5357E+01  -1.64030   4.10076
     234.50   3.370143     0.3180E+01  -1.86672   4.66681
     235.50   3.371991     0.7517E+01  -1.49318   3.73294
     236.50   3.373831     0.3683E+01  -1.80299   4.50748
     237.50   3.375664     0.5344E+01  -1.64134   4.10336
     238.50   3.377488     0.2581E+01  -1.95736   4.89340
     239.50   3.379306     0.3578E+01  -1.81554   4.53885
     240.50   3.381115     0.3608E+01  -1.81194   4.52984
     241.50   3.382917     0.4649E+01  -1.70183   4.25458
     242.50   3.384712     0.9220E+01  -1.40449   3.51122
     243.50   3.386499     0.9225E+01  -1.40423   3.51057
     244.50   3.388279     0.1131E+02  -1.31564   3.28910
     245.50   3.390052     0.1208E+02  -1.28715   3.21787
     246.50   3.391817     0.1030E+02  -1.35644   3.39109
     247.50   3.393575     0.8789E+01  -1.42527   3.56317
     248.50   3.395326     0.4654E+01  -1.70139   4.25349
     249.50   3.397071     0.6266E+01  -1.57220   3.93049
     250.50   3.398808     0.1064E+02  -1.34209   3.35523
     251.30   3.400192     0.3649E+01  -1.80699   4.51747
     251.80   3.401056     0.2404E+01  -1.98826   4.97064
     252.50   3.402261     0.3018E+01  -1.88949   4.72373
     253.50   3.403978     0.6189E+01  -1.57762   3.94404
     254.50   3.405688     0.6730E+01  -1.54123   3.85307
     255.50   3.407391     0.1297E+02  -1.25634   3.14085
     256.50   3.409087     0.9310E+01  -1.40027   3.50066
     257.50   3.410777     0.1228E+02  -1.27986   3.19964
     258.50   3.412461     0.1066E+02  -1.34148   3.35370
     259.50   3.414137     0.9337E+01  -1.39900   3.49751
     260.50   3.415808     0.7760E+01  -1.47934   3.69835
     261.50   3.417472     0.6773E+01  -1.53843   3.84608
     262.50   3.419129     0.1005E+02  -1.36696   3.41740
     263.50   3.420781     0.1839E+02  -1.10472   2.76179
     264.50   3.422426     0.2545E+02  -0.96356   2.40891
     265.50   3.424065     0.3479E+02  -0.82773   2.06932
     266.50   3.425697     0.2239E+02  -1.01923   2.54806
     267.50   3.427324     0.2567E+02  -0.95979   2.39947
     268.50   3.428944     0.2966E+02  -0.89700   2.24250
     269.50   3.430559     0.2123E+02  -1.04219   2.60546
     270.50   3.432167     0.2630E+02  -0.94930   2.37324
     271.50   3.433770     0.1870E+02  -1.09735   2.74337
     272.50   3.435366     0.1516E+02  -1.18838   2.97095
     273.50   3.436957     0.1941E+02  -1.08110   2.70274
     274.50   3.438542     0.1001E+02  -1.36879   3.42197
     275.50   3.440122     0.1446E+02  -1.20895   3.02238
     276.50   3.441695     0.1956E+02  -1.07777   2.69442
     277.50   3.443263     0.2104E+02  -1.04608   2.61519
     278.50   3.444825     0.1152E+02  -1.30759   3.26897
     279.50   3.446382     0.4261E+01  -1.73968   4.34920
     280.50   3.447933     0.5438E+01  -1.63380   4.08450
     281.50   3.449478     0.1827E+02  -1.10743   2.76857
     282.50   3.451018     0.2776E+02  -0.92576   2.31439
     283.50   3.452553     0.2611E+02  -0.95242   2.38106
     284.50   3.454082     0.1866E+02  -1.09831   2.74578
     285.50   3.455606     0.9610E+01  -1.38649   3.46622
     286.50   3.457125     0.2629E+02  -0.94940   2.37349
     287.50   3.458638     0.3468E+02  -0.82919   2.07299
     288.50   3.460146     0.3120E+02  -0.87512   2.18780
     289.50   3.461648     0.3762E+02  -0.79377   1.98442
     291.00   3.463893     0.5105E+02  -0.66123   1.65309
     293.00   3.466868     0.4633E+02  -0.70336   1.75840
     295.00   3.469822     0.4463E+02  -0.71956   1.79891
     297.00   3.472756     0.4719E+02  -0.69538   1.73845
     299.00   3.475671     0.4890E+02  -0.67992   1.69981
     301.00   3.478566     0.4993E+02  -0.67087   1.67717
     303.00   3.481443     0.5258E+02  -0.64837   1.62092
     305.00   3.484300     0.5503E+02  -0.62865   1.57162
     307.00   3.487138     0.5586E+02  -0.62212   1.55531
     309.00   3.489959     0.5274E+02  -0.64705   1.61761
     311.00   3.492760     0.5943E+02  -0.59518   1.48794
     313.00   3.495544     0.5534E+02  -0.62615   1.56537
     315.00   3.498311     0.5434E+02  -0.63406   1.58516
     317.00   3.501059     0.6065E+02  -0.58641   1.46602
     319.00   3.503791     0.5323E+02  -0.64303   1.60758
     321.00   3.506505     0.5922E+02  -0.59678   1.49195
     323.00   3.509202     0.5106E+02  -0.66111   1.65278
     325.00   3.511883     0.6938E+02  -0.52796   1.31991
     327.00   3.514548     0.7978E+02  -0.46733   1.16832
     329.00   3.517196     0.7795E+02  -0.47741   1.19352
     331.00   3.519828     0.7381E+02  -0.50107   1.25268
     333.00   3.522444     0.7565E+02  -0.49040   1.22600
     335.00   3.525045     0.7359E+02  -0.50237   1.25593
     337.00   3.527630     0.5597E+02  -0.62124   1.55310
     339.00   3.530200     0.6467E+02  -0.55850   1.39625
     341.00   3.532754     0.6683E+02  -0.54422   1.36056
     343.00   3.535294     0.7141E+02  -0.51546   1.28864
     345.00   3.537819     0.7633E+02  -0.48654   1.21636
     347.00   3.540329     0.7898E+02  -0.47170   1.17926
     349.00   3.542825     0.8676E+02  -0.43088   1.07720
     351.00   3.545307     0.9149E+02  -0.40783   1.01959
     353.00   3.547775     0.8317E+02  -0.44923   1.12307
     355.00   3.550228     0.9427E+02  -0.39484   0.98711
     357.00   3.552668     0.7197E+02  -0.51204   1.28010
     359.00   3.555094     0.7301E+02  -0.50581   1.26453
     361.00   3.557507     0.8714E+02  -0.42899   1.07249
     363.00   3.559907     0.8930E+02  -0.41836   1.04590
     364.00   3.561101     0.9133E+02  -0.40859   1.02147
     365.00   3.562293     0.9885E+02  -0.37422   0.93556
     367.00   3.564666     0.1035E+03  -0.35430   0.88575
     369.00   3.567026     0.9454E+02  -0.39359   0.98399
     371.00   3.569374     0.1004E+03  -0.36740   0.91849
     373.00   3.571709     0.7158E+02  -0.51442   1.28606
     375.00   3.574031     0.8096E+02  -0.46095   1.15239
     377.00   3.576341     0.1008E+03  -0.36566   0.91415
     379.00   3.578639     0.1045E+03  -0.35011   0.87528
     381.00   3.580925     0.1019E+03  -0.36118   0.90294
     383.00   3.583199     0.6242E+02  -0.57392   1.43479
     385.00   3.585461     0.8597E+02  -0.43489   1.08722
     387.00   3.587711     0.8522E+02  -0.43869   1.09673
     389.00   3.589950     0.9677E+02  -0.38347   0.95868
     391.00   3.592177     0.1148E+03  -0.30945   0.77364
     393.00   3.594393     0.5810E+02  -0.60504   1.51260
     395.00   3.596597     0.1008E+03  -0.36591   0.91477
     397.00   3.598790     0.6979E+02  -0.52540   1.31349
     399.00   3.600973     0.1427E+03  -0.21482   0.53706
     401.00   3.603144     0.1554E+03  -0.17771   0.44427
     403.00   3.605305     0.1543E+03  -0.18079   0.45197
     405.00   3.607455     0.1487E+03  -0.19700   0.49250
     407.00   3.609594     0.1420E+03  -0.21695   0.54237
     409.00   3.611723     0.1681E+03  -0.14367   0.35918
     411.00   3.613842     0.1577E+03  -0.17129   0.42822
     413.00   3.615950     0.1576E+03  -0.17153   0.42883
     415.00   3.618048     0.1553E+03  -0.17812   0.44529
     417.00   3.620136     0.1574E+03  -0.17214   0.43034
     419.00   3.622214     0.1534E+03  -0.18345   0.45862
     421.00   3.624282     0.1549E+03  -0.17920   0.44801
     423.00   3.626340     0.1480E+03  -0.19885   0.49711
     425.00   3.628389     0.1549E+03  -0.17907   0.44768
     427.00   3.630428     0.1467E+03  -0.20272   0.50681
     429.00   3.632457     0.1369E+03  -0.23276   0.58190
     431.00   3.634477     0.1178E+03  -0.29804   0.74511
     433.00   3.636488     0.1683E+03  -0.14310   0.35776
     435.00   3.638489     0.1649E+03  -0.15196   0.37990
     437.00   3.640481     0.1803E+03  -0.11321   0.28303
     439.00   3.642465     0.1629E+03  -0.15734   0.39335
     441.00   3.644439     0.1729E+03  -0.13147   0.32867
     443.00   3.646404     0.1863E+03  -0.09902   0.24755
     445.00   3.648360     0.1868E+03  -0.09794   0.24486
     447.00   3.650307     0.1981E+03  -0.07229   0.18072
     449.00   3.652246     0.2030E+03  -0.06173   0.15432
     451.00   3.654176     0.2268E+03  -0.01359   0.03397
     453.00   3.656098     0.2020E+03  -0.06391   0.15977
     455.00   3.658011     0.2106E+03  -0.04568   0.11420
     457.00   3.659916     0.2263E+03  -0.01451   0.03628
     459.00   3.661813     0.2137E+03  -0.03939   0.09847
     461.00   3.663701     0.2206E+03  -0.02560   0.06401
     463.00   3.665581     0.2160E+03  -0.03471   0.08676
     465.00   3.667453     0.2187E+03  -0.02938   0.07344
     467.00   3.669317     0.2270E+03  -0.01324   0.03311
     469.00   3.671173     0.2233E+03  -0.02042   0.05106
     471.00   3.673021     0.2183E+03  -0.03019   0.07549
     473.00   3.674861     0.2252E+03  -0.01663   0.04157
     475.00   3.676694     0.2302E+03  -0.00711   0.01776
     477.00   3.678518     0.2263E+03  -0.01460   0.03651
     479.00   3.680336     0.2273E+03  -0.01265   0.03164
     481.00   3.682145     0.2276E+03  -0.01199   0.02998
     483.00   3.683947     0.2332E+03  -0.00149   0.00372
     485.00   3.685742     0.2227E+03  -0.02144   0.05360
     487.00   3.687529     0.2041E+03  -0.05940   0.14849
     489.00   3.689309     0.2271E+03  -0.01308   0.03270
     491.00   3.691082     0.2283E+03  -0.01065   0.02663
     493.00   3.692847     0.2248E+03  -0.01743   0.04357
     495.00   3.694605     0.2331E+03  -0.00161   0.00403
     497.00   3.696356     0.2271E+03  -0.01291   0.03228
     499.00   3.698101     0.2129E+03  -0.04114   0.10285
     501.00   3.699838     0.2026E+03  -0.06261   0.15652
     503.00   3.701568     0.2151E+03  -0.03648   0.09119
     505.00   3.703291     0.2150E+03  -0.03681   0.09203
     507.00   3.705008     0.2238E+03  -0.01930   0.04825
     509.00   3.706718     0.2134E+03  -0.04008   0.10020
     511.00   3.708421     0.2179E+03  -0.03101   0.07753
     513.00   3.710117     0.2122E+03  -0.04253   0.10634
     515.00   3.711807     0.2053E+03  -0.05691   0.14228
     517.00   3.713490     0.1881E+03  -0.09480   0.23700
     519.00   3.715167     0.1945E+03  -0.08026   0.20065
     521.00   3.716838     0.2081E+03  -0.05086   0.12714
     523.00   3.718502     0.2235E+03  -0.01985   0.04963
     525.00   3.720159     0.2320E+03  -0.00374   0.00934
     527.00   3.721811     0.2070E+03  -0.05331   0.13329
     529.00   3.723456     0.2356E+03   0.00289  -0.00721
     531.00   3.725095     0.2479E+03   0.02500  -0.06251
     533.00   3.726727     0.2220E+03  -0.02280   0.05700
     535.00   3.728354     0.2416E+03   0.01393  -0.03483
     537.00   3.729974     0.2395E+03   0.01006  -0.02516
     539.00   3.731589     0.2353E+03   0.00239  -0.00596
     541.00   3.733197     0.2315E+03  -0.00457   0.01143
     543.00   3.734800     0.2352E+03   0.00216  -0.00539
     545.00   3.736397     0.2398E+03   0.01061  -0.02653
     547.00   3.737987     0.2345E+03   0.00094  -0.00235
     549.00   3.739572     0.2368E+03   0.00518  -0.01294
     551.00   3.741152     0.2340E+03   0.00000   0.00000
     553.00   3.742725     0.2412E+03   0.01309  -0.03273
     555.00   3.744293     0.2450E+03   0.01989  -0.04973
     557.00   3.745855     0.2394E+03   0.00987  -0.02466
     559.00   3.747412     0.2342E+03   0.00040  -0.00100
     561.00   3.748963     0.2408E+03   0.01247  -0.03117
