age =   17.0    [Fe/H] =    0.25

wavele(nm) log wave(A)   Hlam       log(Hlam/Hlam(V))  Hlam(mag(V)) 
      90.50   2.956649     0.6853E-14 -16.12407  40.31017
      91.50   2.961421     0.1040E-12 -14.94305  37.35764
      92.50   2.966142     0.4147E-12 -14.34218  35.85545
      93.50   2.970812     0.6043E-12 -14.17868  35.44670
      94.50   2.975432     0.9284E-12 -13.99223  34.98057
      95.50   2.980003     0.1416E-11 -13.80888  34.52219
      96.50   2.984527     0.2276E-11 -13.60286  34.00714
      97.50   2.989005     0.3235E-11 -13.45006  33.62515
      98.50   2.993436     0.4747E-11 -13.28350  33.20874
      99.50   2.997823     0.6785E-11 -13.12842  32.82105
     100.50   3.002166     0.1017E-10 -12.95276  32.38190
     101.50   3.006466     0.1463E-10 -12.79476  31.98690
     102.50   3.010724     0.1859E-10 -12.69060  31.72651
     103.50   3.014940     0.2980E-10 -12.48575  31.21437
     104.50   3.019116     0.4243E-10 -12.33228  30.83069
     105.50   3.023252     0.5544E-10 -12.21609  30.54024
     106.50   3.027350     0.7933E-10 -12.06051  30.15127
     107.50   3.031409     0.1094E-09 -11.92082  29.80206
     108.50   3.035430     0.1503E-09 -11.78300  29.45750
     109.50   3.039414     0.1937E-09 -11.67281  29.18201
     110.50   3.043362     0.2716E-09 -11.52596  28.81490
     111.50   3.047275     0.3717E-09 -11.38981  28.47451
     112.50   3.051152     0.5172E-09 -11.24628  28.11570
     113.50   3.054996     0.7298E-09 -11.09676  27.74191
     114.50   3.058805     0.9774E-09 -10.96988  27.42470
     115.50   3.062582     0.1265E-08 -10.85777  27.14441
     116.50   3.066326     0.1677E-08 -10.73549  26.83873
     117.50   3.070038     0.2218E-08 -10.61391  26.53478
     118.50   3.073718     0.2775E-08 -10.51676  26.29191
     119.50   3.077368     0.3320E-08 -10.43887  26.09718
     120.50   3.080987     0.4090E-08 -10.34825  25.87063
     121.50   3.084576     0.3452E-08 -10.42187  26.05467
     122.50   3.088136     0.6391E-08 -10.15437  25.38593
     123.50   3.091667     0.8986E-08 -10.00640  25.01599
     124.50   3.095169     0.1135E-07  -9.90506  24.76264
     125.50   3.098644     0.1394E-07  -9.81554  24.53886
     126.50   3.102091     0.1704E-07  -9.72844  24.32110
     127.50   3.105510     0.2106E-07  -9.63656  24.09140
     128.50   3.108903     0.2482E-07  -9.56523  23.91309
     129.50   3.112270     0.3057E-07  -9.47470  23.68675
     130.50   3.115611     0.3634E-07  -9.39955  23.49887
     131.50   3.118926     0.4532E-07  -9.30370  23.25925
     132.50   3.122216     0.5244E-07  -9.24025  23.10064
     133.50   3.125481     0.6218E-07  -9.16632  22.91580
     134.50   3.128722     0.7627E-07  -9.07757  22.69394
     135.50   3.131939     0.9354E-07  -8.98897  22.47242
     136.50   3.135133     0.1088E-06  -8.92323  22.30808
     137.50   3.138303     0.1278E-06  -8.85353  22.13383
     138.50   3.141450     0.1499E-06  -8.78417  21.96043
     139.50   3.144574     0.1775E-06  -8.71070  21.77675
     140.50   3.147676     0.2177E-06  -8.62216  21.55541
     141.50   3.150756     0.2589E-06  -8.54675  21.36688
     142.50   3.153815     0.3084E-06  -8.47084  21.17711
     143.50   3.156852     0.3717E-06  -8.38979  20.97448
     144.20   3.158965     0.4413E-06  -8.31523  20.78808
     144.70   3.160469     0.4508E-06  -8.30592  20.76481
     145.50   3.162863     0.5236E-06  -8.24094  20.60236
     146.50   3.165838     0.6447E-06  -8.15059  20.37648
     147.50   3.168792     0.7554E-06  -8.08178  20.20445
     148.50   3.171726     0.8655E-06  -8.02269  20.05672
     149.50   3.174641     0.1067E-05  -7.93177  19.82942
     150.50   3.177536     0.1284E-05  -7.85129  19.62822
     151.20   3.179552     0.1246E-05  -7.86427  19.66068
     151.70   3.180986     0.1436E-05  -7.80279  19.50697
     152.50   3.183270     0.2498E-05  -7.56241  18.90601
     153.50   3.186108     0.3818E-05  -7.37814  18.44535
     154.50   3.188928     0.3464E-05  -7.42031  18.55078
     155.50   3.191730     0.5349E-05  -7.23168  18.07920
     156.50   3.194514     0.5422E-05  -7.22580  18.06450
     157.50   3.197281     0.1147E-04  -6.90038  17.25095
     158.50   3.200029     0.1374E-04  -6.82200  17.05500
     159.50   3.202761     0.1609E-04  -6.75333  16.88333
     160.50   3.205475     0.1707E-04  -6.72778  16.81945
     161.50   3.208173     0.1870E-04  -6.68803  16.72008
     162.50   3.210853     0.2125E-04  -6.63262  16.58155
     163.50   3.213518     0.2721E-04  -6.52520  16.31299
     164.50   3.216166     0.3844E-04  -6.37512  15.93780
     165.50   3.218798     0.2889E-04  -6.49926  16.24816
     166.50   3.221414     0.4726E-04  -6.28547  15.71368
     167.20   3.223236     0.3456E-04  -6.42144  16.05359
     167.70   3.224533     0.1243E-03  -5.86545  14.66362
     168.50   3.226600     0.1408E-03  -5.81121  14.52802
     169.50   3.229170     0.1814E-03  -5.70120  14.25301
     170.50   3.231725     0.1942E-03  -5.67178  14.17944
     171.50   3.234264     0.1897E-03  -5.68190  14.20476
     172.50   3.236789     0.2649E-03  -5.53680  13.84201
     173.50   3.239300     0.3179E-03  -5.45770  13.64425
     174.50   3.241796     0.4515E-03  -5.30529  13.26323
     175.50   3.244277     0.5803E-03  -5.19631  12.99077
     176.50   3.246745     0.5782E-03  -5.19786  12.99466
     177.50   3.249198     0.5971E-03  -5.18389  12.95972
     178.50   3.251638     0.8669E-03  -5.02198  12.55495
     179.50   3.254065     0.9525E-03  -4.98108  12.45271
     180.50   3.256477     0.1167E-02  -4.89287  12.23217
     181.50   3.258877     0.1052E-02  -4.93796  12.34490
     182.50   3.261263     0.1455E-02  -4.79719  11.99298
     183.50   3.263636     0.1470E-02  -4.79264  11.98160
     184.50   3.265996     0.1198E-02  -4.88154  12.20385
     185.50   3.268344     0.1578E-02  -4.76177  11.90443
     186.50   3.270679     0.1961E-02  -4.66746  11.66864
     187.50   3.273001     0.2111E-02  -4.63550  11.58876
     188.50   3.275311     0.2332E-02  -4.59226  11.48065
     189.50   3.277609     0.3146E-02  -4.46222  11.15556
     190.50   3.279895     0.3035E-02  -4.47773  11.19432
     191.50   3.282169     0.3598E-02  -4.40395  11.00986
     192.50   3.284431     0.3544E-02  -4.41045  11.02614
     193.50   3.286681     0.2342E-02  -4.59042  11.47605
     194.50   3.288920     0.4632E-02  -4.29423  10.73557
     195.50   3.291147     0.5213E-02  -4.24284  10.60711
     196.70   3.293804     0.6591E-02  -4.14103  10.35257
     197.60   3.295787     0.6751E-02  -4.13056  10.32639
     198.40   3.297542     0.7588E-02  -4.07983  10.19957
     199.50   3.299943     0.7609E-02  -4.07862  10.19656
     200.50   3.302114     0.7664E-02  -4.07552  10.18879
     201.50   3.304275     0.8650E-02  -4.02294  10.05735
     202.50   3.306425     0.7017E-02  -4.11378  10.28446
     203.50   3.308564     0.9718E-02  -3.97239   9.93097
     204.50   3.310693     0.1110E-01  -3.91477   9.78693
     205.50   3.312812     0.1208E-01  -3.87789   9.69473
     206.50   3.314920     0.1209E-01  -3.87750   9.69376
     207.40   3.316809     0.1261E-01  -3.85928   9.64819
     207.80   3.317646     0.2576E-01  -3.54901   8.87253
     208.50   3.319106     0.3268E-01  -3.44561   8.61402
     209.50   3.321184     0.3223E-01  -3.45169   8.62922
     210.50   3.323252     0.3311E-01  -3.43993   8.59983
     211.50   3.325310     0.3901E-01  -3.36876   8.42189
     212.50   3.327359     0.3613E-01  -3.40214   8.50536
     213.50   3.329398     0.4133E-01  -3.34370   8.35924
     214.50   3.331427     0.4634E-01  -3.29400   8.23501
     215.50   3.333447     0.4370E-01  -3.31949   8.29872
     216.50   3.335458     0.4225E-01  -3.33417   8.33543
     217.50   3.337459     0.4348E-01  -3.32170   8.30424
     218.50   3.339452     0.5121E-01  -3.25060   8.12649
     219.50   3.341434     0.5701E-01  -3.20401   8.01004
     220.50   3.343409     0.5808E-01  -3.19591   7.98979
     221.50   3.345374     0.5074E-01  -3.25456   8.13640
     222.50   3.347330     0.6055E-01  -3.17787   7.94466
     223.50   3.349277     0.8522E-01  -3.02941   7.57352
     224.50   3.351216     0.8703E-01  -3.02029   7.55073
     225.50   3.353147     0.7659E-01  -3.07577   7.68944
     226.50   3.355068     0.6005E-01  -3.18147   7.95369
     227.50   3.356982     0.7144E-01  -3.10601   7.76503
     228.50   3.358886     0.1013E+00  -2.95434   7.38586
     229.50   3.360783     0.9236E-01  -2.99447   7.48617
     230.50   3.362671     0.8884E-01  -3.01133   7.52833
     231.50   3.364551     0.1019E+00  -2.95182   7.37955
     232.50   3.366423     0.1020E+00  -2.95143   7.37858
     233.50   3.368287     0.1147E+00  -2.90031   7.25077
     234.50   3.370143     0.7884E-01  -3.06321   7.65802
     235.50   3.371991     0.1113E+00  -2.91334   7.28334
     236.50   3.373831     0.9133E-01  -2.99932   7.49830
     237.50   3.375664     0.1079E+00  -2.92679   7.31698
     238.50   3.377488     0.8990E-01  -3.00619   7.51547
     239.50   3.379306     0.1045E+00  -2.94074   7.35185
     240.50   3.381115     0.1237E+00  -2.86745   7.16862
     241.50   3.382917     0.1071E+00  -2.93002   7.32504
     242.50   3.384712     0.1624E+00  -2.74935   6.87339
     243.50   3.386499     0.1825E+00  -2.69870   6.74674
     244.50   3.388279     0.2260E+00  -2.60582   6.51455
     245.50   3.390052     0.2466E+00  -2.56790   6.41976
     246.50   3.391817     0.1876E+00  -2.68679   6.71696
     247.50   3.393575     0.1824E+00  -2.69886   6.74716
     248.50   3.395326     0.7636E-01  -3.07709   7.69272
     249.50   3.397071     0.1146E+00  -2.90063   7.25159
     250.50   3.398808     0.1969E+00  -2.66573   6.66431
     251.30   3.400192     0.1065E+00  -2.93271   7.33178
     251.80   3.401056     0.7698E-01  -3.07359   7.68396
     252.50   3.402261     0.8824E-01  -3.01428   7.53570
     253.50   3.403978     0.2065E+00  -2.64507   6.61268
     254.50   3.405688     0.2170E+00  -2.62356   6.55889
     255.50   3.407391     0.4921E+00  -2.26786   5.66966
     256.50   3.409087     0.3396E+00  -2.42898   6.07244
     257.50   3.410777     0.5013E+00  -2.25983   5.64958
     258.50   3.412461     0.4603E+00  -2.29693   5.74232
     259.50   3.414137     0.4538E+00  -2.30305   5.75762
     260.50   3.415808     0.4479E+00  -2.30875   5.77188
     261.50   3.417472     0.4009E+00  -2.35692   5.89229
     262.50   3.419129     0.5632E+00  -2.20929   5.52321
     263.50   3.420781     0.1129E+01  -1.90717   4.76793
     264.50   3.422426     0.1341E+01  -1.83267   4.58168
     265.50   3.424065     0.2500E+01  -1.56205   3.90511
     266.50   3.425697     0.1309E+01  -1.84304   4.60759
     267.50   3.427324     0.1394E+01  -1.81564   4.53911
     268.50   3.428944     0.1882E+01  -1.68542   4.21355
     269.50   3.430559     0.1079E+01  -1.92683   4.81708
     270.50   3.432167     0.1653E+01  -1.74177   4.35443
     271.50   3.433770     0.1094E+01  -1.92088   4.80220
     272.50   3.435366     0.6447E+00  -2.15062   5.37655
     273.50   3.436957     0.9398E+00  -1.98690   4.96725
     274.50   3.438542     0.7114E+00  -2.10782   5.26954
     275.50   3.440122     0.9707E+00  -1.97285   4.93212
     276.50   3.441695     0.1339E+01  -1.83312   4.58280
     277.50   3.443263     0.1464E+01  -1.79451   4.48629
     278.50   3.444825     0.8818E+00  -2.01459   5.03649
     279.50   3.446382     0.4526E+00  -2.30428   5.76071
     280.50   3.447933     0.5476E+00  -2.22147   5.55369
     281.50   3.449478     0.1297E+01  -1.84691   4.61727
     282.50   3.451018     0.1673E+01  -1.73644   4.34110
     283.50   3.452553     0.1327E+01  -1.83719   4.59298
     284.50   3.454082     0.7564E+00  -2.08121   5.20303
     285.50   3.455606     0.3599E+00  -2.40371   6.00929
     286.50   3.457125     0.1103E+01  -1.91738   4.79344
     287.50   3.458638     0.2030E+01  -1.65237   4.13092
     288.50   3.460146     0.2247E+01  -1.60832   4.02079
     289.50   3.461648     0.3419E+01  -1.42608   3.56521
     291.00   3.463893     0.5699E+01  -1.20416   3.01041
     293.00   3.466868     0.5065E+01  -1.25538   3.13844
     295.00   3.469822     0.4638E+01  -1.29367   3.23417
     297.00   3.472756     0.4803E+01  -1.27844   3.19610
     299.00   3.475671     0.5063E+01  -1.25558   3.13894
     301.00   3.478566     0.4771E+01  -1.28138   3.20345
     303.00   3.481443     0.5837E+01  -1.19379   2.98447
     305.00   3.484300     0.6026E+01  -1.17995   2.94987
     307.00   3.487138     0.7136E+01  -1.10651   2.76628
     309.00   3.489959     0.6241E+01  -1.16471   2.91177
     311.00   3.492760     0.8822E+01  -1.01438   2.53595
     313.00   3.495544     0.7516E+01  -1.08395   2.70988
     315.00   3.498311     0.8281E+01  -1.04188   2.60471
     317.00   3.501059     0.9857E+01  -0.96620   2.41550
     319.00   3.503791     0.7895E+01  -1.06260   2.65649
     321.00   3.506505     0.8688E+01  -1.02101   2.55253
     323.00   3.509202     0.7359E+01  -1.09311   2.73278
     325.00   3.511883     0.1190E+02  -0.88438   2.21094
     327.00   3.514548     0.1450E+02  -0.79858   1.99645
     329.00   3.517196     0.1463E+02  -0.79483   1.98708
     331.00   3.519828     0.1273E+02  -0.85498   2.13745
     333.00   3.522444     0.1356E+02  -0.82770   2.06925
     335.00   3.525045     0.1298E+02  -0.84684   2.11709
     337.00   3.527630     0.8492E+01  -1.03096   2.57741
     339.00   3.530200     0.1018E+02  -0.95200   2.38000
     341.00   3.532754     0.1073E+02  -0.92951   2.32377
     343.00   3.535294     0.1178E+02  -0.88869   2.22172
     345.00   3.537819     0.1308E+02  -0.84332   2.10830
     347.00   3.540329     0.1395E+02  -0.81535   2.03838
     349.00   3.542825     0.1662E+02  -0.73937   1.84843
     351.00   3.545307     0.1820E+02  -0.69994   1.74985
     353.00   3.547775     0.1529E+02  -0.77553   1.93883
     355.00   3.550228     0.1756E+02  -0.71539   1.78848
     357.00   3.552668     0.1095E+02  -0.92065   2.30163
     359.00   3.555094     0.1211E+02  -0.87681   2.19202
     361.00   3.557507     0.1699E+02  -0.72964   1.82411
     363.00   3.559907     0.1856E+02  -0.69135   1.72838
     364.00   3.561101     0.1891E+02  -0.68316   1.70789
     365.00   3.562293     0.2107E+02  -0.63619   1.59047
     367.00   3.564666     0.2405E+02  -0.57883   1.44708
     369.00   3.567026     0.1983E+02  -0.66254   1.65636
     371.00   3.569374     0.1997E+02  -0.65957   1.64893
     373.00   3.571709     0.1017E+02  -0.95261   2.38154
     375.00   3.574031     0.1218E+02  -0.87444   2.18611
     377.00   3.576341     0.1925E+02  -0.67542   1.68856
     379.00   3.578639     0.1989E+02  -0.66132   1.65330
     381.00   3.580925     0.1702E+02  -0.72909   1.82272
     383.00   3.583199     0.8057E+01  -1.05377   2.63442
     385.00   3.585461     0.1159E+02  -0.89575   2.23937
     387.00   3.587711     0.1168E+02  -0.89253   2.23132
     389.00   3.589950     0.1787E+02  -0.70793   1.76982
     391.00   3.592177     0.2373E+02  -0.58472   1.46179
     393.00   3.594393     0.1018E+02  -0.95216   2.38040
     395.00   3.596597     0.1989E+02  -0.66137   1.65343
     397.00   3.598790     0.1350E+02  -0.82960   2.07399
     399.00   3.600973     0.3530E+02  -0.41212   1.03030
     401.00   3.603144     0.4069E+02  -0.35051   0.87627
     403.00   3.605305     0.3928E+02  -0.36579   0.91447
     405.00   3.607455     0.3725E+02  -0.38884   0.97211
     407.00   3.609594     0.3374E+02  -0.43185   1.07963
     409.00   3.611723     0.4737E+02  -0.28441   0.71102
     411.00   3.613842     0.4355E+02  -0.32101   0.80252
     413.00   3.615950     0.4039E+02  -0.35364   0.88410
     415.00   3.618048     0.3871E+02  -0.37208   0.93020
     417.00   3.620136     0.4002E+02  -0.35766   0.89415
     419.00   3.622214     0.3980E+02  -0.36006   0.90015
     421.00   3.624282     0.4012E+02  -0.35655   0.89138
     423.00   3.626340     0.3515E+02  -0.41406   1.03515
     425.00   3.628389     0.4217E+02  -0.33496   0.83741
     427.00   3.630428     0.3947E+02  -0.36369   0.90923
     429.00   3.632457     0.3725E+02  -0.38881   0.97202
     431.00   3.634477     0.3337E+02  -0.43666   1.09164
     433.00   3.636488     0.5240E+02  -0.24062   0.60154
     435.00   3.638489     0.5452E+02  -0.22339   0.55847
     437.00   3.640481     0.5915E+02  -0.18799   0.46998
     439.00   3.642465     0.4964E+02  -0.26409   0.66022
     441.00   3.644439     0.5257E+02  -0.23924   0.59810
     443.00   3.646404     0.5773E+02  -0.19854   0.49635
     445.00   3.648360     0.5944E+02  -0.18584   0.46461
     447.00   3.650307     0.6556E+02  -0.14330   0.35826
     449.00   3.652246     0.6853E+02  -0.12407   0.31016
     451.00   3.654176     0.8201E+02  -0.04610   0.11526
     453.00   3.656098     0.6784E+02  -0.12848   0.32121
     455.00   3.658011     0.7302E+02  -0.09653   0.24134
     457.00   3.659916     0.8134E+02  -0.04967   0.12418
     459.00   3.661813     0.7568E+02  -0.08097   0.20242
     461.00   3.663701     0.7828E+02  -0.06629   0.16573
     463.00   3.665581     0.7538E+02  -0.08268   0.20671
     465.00   3.667453     0.7661E+02  -0.07569   0.18921
     467.00   3.669317     0.8205E+02  -0.04589   0.11473
     469.00   3.671173     0.8015E+02  -0.05607   0.14017
     471.00   3.673021     0.7743E+02  -0.07103   0.17758
     473.00   3.674861     0.8022E+02  -0.05567   0.13918
     475.00   3.676694     0.8258E+02  -0.04307   0.10767
     477.00   3.678518     0.7933E+02  -0.06053   0.15132
     479.00   3.680336     0.8108E+02  -0.05102   0.12755
     481.00   3.682145     0.8218E+02  -0.04517   0.11293
     483.00   3.683947     0.8644E+02  -0.02326   0.05815
     485.00   3.685742     0.8251E+02  -0.04346   0.10865
     487.00   3.687529     0.7592E+02  -0.07958   0.19896
     489.00   3.689309     0.8414E+02  -0.03496   0.08739
     491.00   3.691082     0.8480E+02  -0.03155   0.07888
     493.00   3.692847     0.8257E+02  -0.04312   0.10779
     495.00   3.694605     0.8577E+02  -0.02664   0.06659
     497.00   3.696356     0.8070E+02  -0.05307   0.13268
     499.00   3.698101     0.7418E+02  -0.08965   0.22412
     501.00   3.699838     0.6817E+02  -0.12635   0.31587
     503.00   3.701568     0.7453E+02  -0.08761   0.21903
     505.00   3.703291     0.7412E+02  -0.09001   0.22503
     507.00   3.705008     0.7772E+02  -0.06944   0.17359
     509.00   3.706718     0.7239E+02  -0.10028   0.25070
     511.00   3.708421     0.7515E+02  -0.08404   0.21011
     513.00   3.710117     0.7196E+02  -0.10288   0.25720
     515.00   3.711807     0.6891E+02  -0.12169   0.30421
     517.00   3.713490     0.5849E+02  -0.19289   0.48223
     519.00   3.715167     0.6261E+02  -0.16332   0.40831
     521.00   3.716838     0.7153E+02  -0.10546   0.26364
     523.00   3.718502     0.8351E+02  -0.03822   0.09555
     525.00   3.720159     0.8949E+02  -0.00820   0.02049
     527.00   3.721811     0.7521E+02  -0.08366   0.20914
     529.00   3.723456     0.9257E+02   0.00651  -0.01627
     531.00   3.725095     0.1011E+03   0.04461  -0.11151
     533.00   3.726727     0.8444E+02  -0.03339   0.08348
     535.00   3.728354     0.9638E+02   0.02402  -0.06006
     537.00   3.729974     0.9509E+02   0.01819  -0.04548
     539.00   3.731589     0.9242E+02   0.00579  -0.01448
     541.00   3.733197     0.9150E+02   0.00146  -0.00364
     543.00   3.734800     0.9304E+02   0.00874  -0.02184
     545.00   3.736397     0.9392E+02   0.01281  -0.03202
     547.00   3.737987     0.9189E+02   0.00332  -0.00829
     549.00   3.739572     0.9302E+02   0.00860  -0.02150
     551.00   3.741152     0.9119E+02   0.00000   0.00000
     553.00   3.742725     0.9712E+02   0.02736  -0.06840
     555.00   3.744293     0.9964E+02   0.03847  -0.09617
     557.00   3.745855     0.9764E+02   0.02969  -0.07423
     559.00   3.747412     0.9387E+02   0.01258  -0.03146
     561.00   3.748963     0.9747E+02   0.02894  -0.07234
     563.00   3.750508     0.9715E+02   0.02748  -0.06869
