age =   17.0    [Fe/H] =   -0.25

wavele(nm) log wave(A)   Hlam       log(Hlam/Hlam(V))  Hlam(mag(V)) 
      89.50   2.951823     0.6549E-13 -15.28051  38.20127
      90.50   2.956649     0.1327E-12 -14.97372  37.43430
      91.50   2.961421     0.2082E-12 -14.77826  36.94566
      92.50   2.966142     0.1722E-10 -12.86075  32.15187
      93.50   2.970812     0.2386E-10 -12.71909  31.79773
      94.50   2.975432     0.3462E-10 -12.55743  31.39358
      95.50   2.980003     0.5226E-10 -12.37857  30.94642
      96.50   2.984527     0.7679E-10 -12.21140  30.52849
      97.50   2.989005     0.1018E-09 -12.08885  30.22213
      98.50   2.993436     0.1454E-09 -11.93404  29.83509
      99.50   2.997823     0.1999E-09 -11.79593  29.48982
     100.50   3.002166     0.2944E-09 -11.62774  29.06934
     101.50   3.006466     0.3997E-09 -11.49493  28.73733
     102.50   3.010724     0.4509E-09 -11.44261  28.60654
     103.50   3.014940     0.7586E-09 -11.21667  28.04169
     104.50   3.019116     0.1055E-08 -11.07326  27.68314
     105.50   3.023252     0.1330E-08 -10.97298  27.43246
     106.50   3.027350     0.1820E-08 -10.83667  27.09166
     107.50   3.031409     0.2456E-08 -10.70653  26.76632
     108.50   3.035430     0.3328E-08 -10.57454  26.43635
     109.50   3.039414     0.4155E-08 -10.47812  26.19531
     110.50   3.043362     0.1925E-07  -9.81216  24.53041
     111.50   3.047275     0.3319E-07  -9.57567  23.93917
     112.50   3.051152     0.5017E-07  -9.39622  23.49055
     113.50   3.054996     0.7690E-07  -9.21079  23.02697
     114.50   3.058805     0.1025E-06  -9.08600  22.71500
     115.50   3.062582     0.1199E-06  -9.01783  22.54458
     116.50   3.066326     0.1592E-06  -8.89468  22.23669
     117.50   3.070038     0.2046E-06  -8.78570  21.96424
     118.50   3.073718     0.2176E-06  -8.75905  21.89762
     119.50   3.077368     0.1756E-06  -8.85212  22.13030
     120.50   3.080987     0.1656E-06  -8.87757  22.19394
     121.50   3.084576     0.3773E-07  -9.51998  23.79995
     122.50   3.088136     0.2228E-06  -8.74876  21.87189
     123.50   3.091667     0.5245E-06  -8.37694  20.94235
     124.50   3.095169     0.8079E-06  -8.18935  20.47337
     125.50   3.098644     0.1040E-05  -8.07981  20.19952
     126.50   3.102091     0.1160E-05  -8.03213  20.08033
     127.50   3.105510     0.1463E-05  -7.93144  19.82860
     128.50   3.108903     0.1724E-05  -7.86014  19.65036
     129.50   3.112270     0.2092E-05  -7.77616  19.44041
     130.50   3.115611     0.2269E-05  -7.74096  19.35240
     131.50   3.118926     0.2838E-05  -7.64362  19.10905
     132.50   3.122216     0.3019E-05  -7.61677  19.04193
     133.50   3.125481     0.3369E-05  -7.56918  18.92295
     134.50   3.128722     0.3990E-05  -7.49571  18.73927
     135.50   3.131939     0.4636E-05  -7.43056  18.57641
     136.50   3.135133     0.5025E-05  -7.39561  18.48903
     137.50   3.138303     0.5441E-05  -7.36106  18.40266
     138.50   3.141450     0.5992E-05  -7.31912  18.29781
     139.50   3.144574     0.6791E-05  -7.26480  18.16200
     140.50   3.147676     0.8187E-05  -7.18358  17.95896
     141.50   3.150756     0.9367E-05  -7.12512  17.81280
     142.50   3.153815     0.1073E-04  -7.06624  17.66560
     143.50   3.156852     0.1272E-04  -6.99229  17.48073
     144.20   3.158965     0.1658E-04  -6.87722  17.19305
     144.70   3.160469     0.1480E-04  -6.92642  17.31605
     145.50   3.162863     0.1748E-04  -6.85405  17.13512
     146.50   3.165838     0.2225E-04  -6.74938  16.87346
     147.50   3.168792     0.2544E-04  -6.69124  16.72811
     148.50   3.171726     0.2737E-04  -6.65948  16.64870
     149.50   3.174641     0.3600E-04  -6.54042  16.35106
     150.50   3.177536     0.4387E-04  -6.45450  16.13626
     151.20   3.179552     0.3324E-04  -6.57510  16.43776
     151.70   3.180986     0.4243E-04  -6.46899  16.17249
     152.50   3.183270     0.9692E-04  -6.11030  15.27574
     153.50   3.186108     0.1568E-03  -5.90137  14.75343
     154.50   3.188928     0.1293E-03  -5.98503  14.96259
     155.50   3.191730     0.2088E-03  -5.77697  14.44243
     156.50   3.194514     0.1977E-03  -5.80078  14.50196
     157.50   3.197281     0.3584E-03  -5.54232  13.85581
     158.50   3.200029     0.4337E-03  -5.45950  13.64875
     159.50   3.202761     0.5066E-03  -5.39201  13.48003
     160.50   3.205475     0.5432E-03  -5.36170  13.40426
     161.50   3.208173     0.6092E-03  -5.31196  13.27991
     162.50   3.210853     0.6787E-03  -5.26501  13.16252
     163.50   3.213518     0.8008E-03  -5.19319  12.98298
     164.50   3.216166     0.1128E-02  -5.04432  12.61081
     165.50   3.218798     0.7379E-03  -5.22870  13.07176
     166.50   3.221414     0.1304E-02  -4.98152  12.45381
     167.20   3.223236     0.9352E-03  -5.12581  12.81452
     167.70   3.224533     0.3341E-02  -4.57280  11.43201
     168.50   3.226600     0.3661E-02  -4.53315  11.33288
     169.50   3.229170     0.4446E-02  -4.44875  11.12187
     170.50   3.231725     0.4992E-02  -4.39845  10.99612
     171.50   3.234264     0.5469E-02  -4.35880  10.89699
     172.50   3.236789     0.6908E-02  -4.25735  10.64336
     173.50   3.239300     0.8854E-02  -4.14958  10.37394
     174.50   3.241796     0.1196E-01  -4.01892  10.04729
     175.50   3.244277     0.1736E-01  -3.85704   9.64260
     176.50   3.246745     0.1437E-01  -3.93926   9.84815
     177.50   3.249198     0.1703E-01  -3.86553   9.66383
     178.50   3.251638     0.2297E-01  -3.73552   9.33880
     179.50   3.254065     0.3086E-01  -3.60725   9.01812
     180.50   3.256477     0.3259E-01  -3.58365   8.95913
     181.50   3.258877     0.2755E-01  -3.65665   9.14163
     182.50   3.261263     0.3575E-01  -3.54341   8.85852
     183.50   3.263636     0.3686E-01  -3.53009   8.82523
     184.50   3.265996     0.2274E-01  -3.74000   9.34999
     185.50   3.268344     0.4246E-01  -3.46869   8.67171
     186.50   3.270679     0.5439E-01  -3.36119   8.40297
     187.50   3.273001     0.5686E-01  -3.34191   8.35478
     188.50   3.275311     0.6129E-01  -3.30933   8.27333
     189.50   3.277609     0.8286E-01  -3.17835   7.94587
     190.50   3.279895     0.7849E-01  -3.20187   8.00467
     191.50   3.282169     0.8910E-01  -3.14682   7.86704
     192.50   3.284431     0.7899E-01  -3.19915   7.99787
     193.50   3.286681     0.4575E-01  -3.43629   8.59073
     194.50   3.288920     0.1127E+00  -3.04496   7.61241
     195.50   3.291147     0.1181E+00  -3.02451   7.56128
     196.70   3.293804     0.1614E+00  -2.88870   7.22176
     197.60   3.295787     0.1394E+00  -2.95246   7.38115
     198.40   3.297542     0.1775E+00  -2.84755   7.11887
     199.50   3.299943     0.1943E+00  -2.80831   7.02078
     200.50   3.302114     0.1815E+00  -2.83771   7.09427
     201.50   3.304275     0.2007E+00  -2.79418   6.98546
     202.50   3.306425     0.1442E+00  -2.93767   7.34417
     203.50   3.308564     0.2246E+00  -2.74538   6.86345
     204.50   3.310693     0.2648E+00  -2.67385   6.68463
     205.50   3.312812     0.2596E+00  -2.68245   6.70613
     206.50   3.314920     0.2533E+00  -2.69311   6.73276
     207.40   3.316809     0.2819E+00  -2.64667   6.61668
     207.80   3.317646     0.8345E+00  -2.17530   5.43825
     208.50   3.319106     0.1107E+01  -2.05259   5.13147
     209.50   3.321184     0.9933E+00  -2.09961   5.24902
     210.50   3.323252     0.9648E+00  -2.11229   5.28071
     211.50   3.325310     0.1180E+01  -2.02472   5.06180
     212.50   3.327359     0.9974E+00  -2.09785   5.24461
     213.50   3.329398     0.9913E+00  -2.10050   5.25125
     214.50   3.331427     0.1352E+01  -1.96563   4.91407
     215.50   3.333447     0.1273E+01  -1.99192   4.97980
     216.50   3.335458     0.1053E+01  -2.07439   5.18598
     217.50   3.337459     0.1051E+01  -2.07518   5.18795
     218.50   3.339452     0.1544E+01  -1.90792   4.76979
     219.50   3.341434     0.1470E+01  -1.92930   4.82326
     220.50   3.343409     0.1459E+01  -1.93279   4.83196
     221.50   3.345374     0.1043E+01  -2.07842   5.19604
     222.50   3.347330     0.1393E+01  -1.95273   4.88182
     223.50   3.349277     0.2013E+01  -1.79277   4.48192
     224.50   3.351216     0.1909E+01  -1.81586   4.53966
     225.50   3.353147     0.1327E+01  -1.97369   4.93422
     226.50   3.355068     0.1122E+01  -2.04683   5.11706
     227.50   3.356982     0.1216E+01  -2.01165   5.02913
     228.50   3.358886     0.1977E+01  -1.80064   4.50160
     229.50   3.360783     0.1514E+01  -1.91671   4.79176
     230.50   3.362671     0.1995E+01  -1.79675   4.49188
     231.50   3.364551     0.1632E+01  -1.88408   4.71020
     232.50   3.366423     0.1380E+01  -1.95686   4.89214
     233.50   3.368287     0.1166E+01  -2.03008   5.07520
     234.50   3.370143     0.6965E+00  -2.25378   5.63446
     235.50   3.371991     0.1596E+01  -1.89374   4.73435
     236.50   3.373831     0.8218E+00  -2.18193   5.45484
     237.50   3.375664     0.1147E+01  -2.03706   5.09265
     238.50   3.377488     0.6106E+00  -2.31095   5.77736
     239.50   3.379306     0.8141E+00  -2.18603   5.46508
     240.50   3.381115     0.8496E+00  -2.16751   5.41879
     241.50   3.382917     0.1027E+01  -2.08495   5.21237
     242.50   3.384712     0.2087E+01  -1.77717   4.44292
     243.50   3.386499     0.2126E+01  -1.76911   4.42279
     244.50   3.388279     0.2673E+01  -1.66970   4.17424
     245.50   3.390052     0.2904E+01  -1.63378   4.08444
     246.50   3.391817     0.2289E+01  -1.73708   4.34270
     247.50   3.393575     0.1921E+01  -1.81318   4.53294
     248.50   3.395326     0.7817E+00  -2.20369   5.50921
     249.50   3.397071     0.1253E+01  -1.99884   4.99711
     250.50   3.398808     0.2209E+01  -1.75257   4.38143
     251.30   3.400192     0.7702E+00  -2.21007   5.52519
     251.80   3.401056     0.5206E+00  -2.38023   5.95059
     252.50   3.402261     0.6323E+00  -2.29578   5.73946
     253.50   3.403978     0.1527E+01  -1.91288   4.78220
     254.50   3.405688     0.1603E+01  -1.89180   4.72950
     255.50   3.407391     0.3743E+01  -1.52351   3.80877
     256.50   3.409087     0.2527E+01  -1.69415   4.23539
     257.50   3.410777     0.3537E+01  -1.54806   3.87015
     258.50   3.412461     0.3010E+01  -1.61809   4.04523
     259.50   3.414137     0.2647E+01  -1.67396   4.18491
     260.50   3.415808     0.2188E+01  -1.75670   4.39175
     261.50   3.417472     0.1920E+01  -1.81336   4.53339
     262.50   3.419129     0.2832E+01  -1.64456   4.11140
     263.50   3.420781     0.5902E+01  -1.32568   3.31420
     264.50   3.422426     0.8097E+01  -1.18840   2.97100
     265.50   3.424065     0.1233E+02  -1.00565   2.51412
     266.50   3.425697     0.7361E+01  -1.22978   3.07446
     267.50   3.427324     0.8370E+01  -1.17400   2.93499
     268.50   3.428944     0.1020E+02  -1.08799   2.71997
     269.50   3.430559     0.6676E+01  -1.27220   3.18050
     270.50   3.432167     0.8755E+01  -1.15445   2.88613
     271.50   3.433770     0.5823E+01  -1.33152   3.32881
     272.50   3.435366     0.3953E+01  -1.49982   3.74955
     273.50   3.436957     0.5628E+01  -1.34638   3.36595
     274.50   3.438542     0.3029E+01  -1.61537   4.03841
     275.50   3.440122     0.4559E+01  -1.43782   3.59455
     276.50   3.441695     0.6398E+01  -1.29066   3.22664
     277.50   3.443263     0.6710E+01  -1.26995   3.17488
     278.50   3.444825     0.3532E+01  -1.54862   3.87156
     279.50   3.446382     0.1432E+01  -1.94080   4.85200
     280.50   3.447933     0.1789E+01  -1.84401   4.61003
     281.50   3.449478     0.5619E+01  -1.34702   3.36756
     282.50   3.451018     0.8570E+01  -1.16373   2.90932
     283.50   3.452553     0.7559E+01  -1.21821   3.04553
     284.50   3.454082     0.4435E+01  -1.44985   3.62461
     285.50   3.455606     0.2081E+01  -1.77846   4.44614
     286.50   3.457125     0.6910E+01  -1.25720   3.14301
     287.50   3.458638     0.1110E+02  -1.05147   2.62867
     288.50   3.460146     0.1023E+02  -1.08664   2.71660
     289.50   3.461648     0.1372E+02  -0.95926   2.39815
     291.00   3.463893     0.1991E+02  -0.79765   1.99411
     293.00   3.466868     0.1797E+02  -0.84221   2.10553
     295.00   3.469822     0.1694E+02  -0.86774   2.16935
     297.00   3.472756     0.1767E+02  -0.84952   2.12379
     299.00   3.475671     0.1860E+02  -0.82718   2.06794
     301.00   3.478566     0.1850E+02  -0.82955   2.07389
     303.00   3.481443     0.2040E+02  -0.78715   1.96787
     305.00   3.484300     0.2138E+02  -0.76673   1.91682
     307.00   3.487138     0.2214E+02  -0.75157   1.87893
     309.00   3.489959     0.1985E+02  -0.79901   1.99753
     311.00   3.492760     0.2418E+02  -0.71323   1.78309
     313.00   3.495544     0.2161E+02  -0.76203   1.90507
     315.00   3.498311     0.2151E+02  -0.76405   1.91012
     317.00   3.501059     0.2477E+02  -0.70286   1.75714
     319.00   3.503791     0.2133E+02  -0.76773   1.91932
     321.00   3.506505     0.2374E+02  -0.72120   1.80300
     323.00   3.509202     0.2033E+02  -0.78866   1.97164
     325.00   3.511883     0.2987E+02  -0.62154   1.55384
     327.00   3.514548     0.3515E+02  -0.55084   1.37710
     329.00   3.517196     0.3442E+02  -0.55987   1.39968
     331.00   3.519828     0.3132E+02  -0.60082   1.50206
     333.00   3.522444     0.3257E+02  -0.58393   1.45982
     335.00   3.525045     0.3131E+02  -0.60100   1.50251
     337.00   3.527630     0.2179E+02  -0.75843   1.89607
     339.00   3.530200     0.2611E+02  -0.67988   1.69971
     341.00   3.532754     0.2739E+02  -0.65906   1.64766
     343.00   3.535294     0.3016E+02  -0.61726   1.54314
     345.00   3.537819     0.3277E+02  -0.58127   1.45317
     347.00   3.540329     0.3440E+02  -0.56011   1.40027
     349.00   3.542825     0.3896E+02  -0.50608   1.26520
     351.00   3.545307     0.4176E+02  -0.47598   1.18995
     353.00   3.547775     0.3721E+02  -0.52609   1.31523
     355.00   3.550228     0.4275E+02  -0.46576   1.16439
     357.00   3.552668     0.3036E+02  -0.61442   1.53606
     359.00   3.555094     0.3128E+02  -0.60144   1.50359
     361.00   3.557507     0.3968E+02  -0.49815   1.24538
     363.00   3.559907     0.4087E+02  -0.48528   1.21319
     364.00   3.561101     0.4198E+02  -0.47371   1.18428
     365.00   3.562293     0.4534E+02  -0.44027   1.10067
     367.00   3.564666     0.4897E+02  -0.40675   1.01688
     369.00   3.567026     0.4373E+02  -0.45594   1.13984
     371.00   3.569374     0.4578E+02  -0.43600   1.08999
     373.00   3.571709     0.2876E+02  -0.63784   1.59460
     375.00   3.574031     0.3325E+02  -0.57485   1.43714
     377.00   3.576341     0.4487E+02  -0.44476   1.11190
     379.00   3.578639     0.4614E+02  -0.43266   1.08165
     381.00   3.580925     0.4286E+02  -0.46463   1.16159
     383.00   3.583199     0.2295E+02  -0.73596   1.83991
     385.00   3.585461     0.3275E+02  -0.58156   1.45389
     387.00   3.587711     0.3194E+02  -0.59233   1.48082
     389.00   3.589950     0.4127E+02  -0.48112   1.20279
     391.00   3.592177     0.5071E+02  -0.39165   0.97913
     393.00   3.594393     0.2392E+02  -0.71788   1.79469
     395.00   3.596597     0.4443E+02  -0.44908   1.12269
     397.00   3.598790     0.3041E+02  -0.61368   1.53420
     399.00   3.600973     0.6733E+02  -0.26852   0.67129
     401.00   3.603144     0.7423E+02  -0.22615   0.56537
     403.00   3.605305     0.7279E+02  -0.23461   0.58653
     405.00   3.607455     0.6990E+02  -0.25222   0.63054
     407.00   3.609594     0.6587E+02  -0.27802   0.69505
     409.00   3.611723     0.8210E+02  -0.18234   0.45586
     411.00   3.613842     0.7709E+02  -0.20972   0.52429
     413.00   3.615950     0.7507E+02  -0.22124   0.55311
     415.00   3.618048     0.7299E+02  -0.23345   0.58363
     417.00   3.620136     0.7473E+02  -0.22323   0.55808
     419.00   3.622214     0.7230E+02  -0.23755   0.59386
     421.00   3.624282     0.7287E+02  -0.23416   0.58539
     423.00   3.626340     0.6850E+02  -0.26099   0.65248
     425.00   3.628389     0.7280E+02  -0.23457   0.58643
     427.00   3.630428     0.6834E+02  -0.26206   0.65515
     429.00   3.632457     0.6357E+02  -0.29343   0.73357
     431.00   3.634477     0.5436E+02  -0.36141   0.90353
     433.00   3.636488     0.8270E+02  -0.17920   0.44800
     435.00   3.638489     0.8226E+02  -0.18149   0.45374
     437.00   3.640481     0.8863E+02  -0.14910   0.37275
     439.00   3.642465     0.7861E+02  -0.20125   0.50312
     441.00   3.644439     0.8438E+02  -0.17045   0.42612
     443.00   3.646404     0.9255E+02  -0.13034   0.32584
     445.00   3.648360     0.9309E+02  -0.12779   0.31948
     447.00   3.650307     0.9988E+02  -0.09722   0.24305
     449.00   3.652246     0.1030E+03  -0.08400   0.21001
     451.00   3.654176     0.1165E+03  -0.03021   0.07552
     453.00   3.656098     0.1024E+03  -0.08630   0.21575
     455.00   3.658011     0.1079E+03  -0.06362   0.15905
     457.00   3.659916     0.1165E+03  -0.03020   0.07549
     459.00   3.661813     0.1096E+03  -0.05671   0.14179
     461.00   3.663701     0.1135E+03  -0.04178   0.10445
     463.00   3.665581     0.1112E+03  -0.05050   0.12624
     465.00   3.667453     0.1124E+03  -0.04593   0.11483
     467.00   3.669317     0.1174E+03  -0.02716   0.06791
     469.00   3.671173     0.1153E+03  -0.03489   0.08722
     471.00   3.673021     0.1129E+03  -0.04417   0.11042
     473.00   3.674861     0.1162E+03  -0.03165   0.07914
     475.00   3.676694     0.1188E+03  -0.02200   0.05501
     477.00   3.678518     0.1159E+03  -0.03252   0.08131
     479.00   3.680336     0.1170E+03  -0.02851   0.07128
     481.00   3.682145     0.1179E+03  -0.02521   0.06302
     483.00   3.683947     0.1211E+03  -0.01357   0.03393
     485.00   3.685742     0.1167E+03  -0.02978   0.07444
     487.00   3.687529     0.1078E+03  -0.06402   0.16004
     489.00   3.689309     0.1183E+03  -0.02358   0.05895
     491.00   3.691082     0.1192E+03  -0.02035   0.05088
     493.00   3.692847     0.1171E+03  -0.02802   0.07005
     495.00   3.694605     0.1213E+03  -0.01283   0.03207
     497.00   3.696356     0.1175E+03  -0.02672   0.06681
     499.00   3.698101     0.1097E+03  -0.05636   0.14090
     501.00   3.699838     0.1038E+03  -0.08064   0.20160
     503.00   3.701568     0.1107E+03  -0.05249   0.13123
     505.00   3.703291     0.1104E+03  -0.05373   0.13433
     507.00   3.705008     0.1150E+03  -0.03585   0.08962
     509.00   3.706718     0.1095E+03  -0.05733   0.14333
     511.00   3.708421     0.1119E+03  -0.04777   0.11944
     513.00   3.710117     0.1090E+03  -0.05932   0.14831
     515.00   3.711807     0.1050E+03  -0.07535   0.18838
     517.00   3.713490     0.9462E+02  -0.12070   0.30175
     519.00   3.715167     0.9880E+02  -0.10194   0.25484
     521.00   3.716838     0.1073E+03  -0.06595   0.16488
     523.00   3.718502     0.1177E+03  -0.02582   0.06455
     525.00   3.720159     0.1230E+03  -0.00676   0.01689
     527.00   3.721811     0.1084E+03  -0.06183   0.15458
     529.00   3.723456     0.1254E+03   0.00161  -0.00403
     531.00   3.725095     0.1328E+03   0.02651  -0.06627
     533.00   3.726727     0.1177E+03  -0.02583   0.06458
     535.00   3.728354     0.1291E+03   0.01423  -0.03557
     537.00   3.729974     0.1277E+03   0.00951  -0.02377
     539.00   3.731589     0.1256E+03   0.00229  -0.00572
     541.00   3.733197     0.1236E+03  -0.00465   0.01164
     543.00   3.734800     0.1254E+03   0.00170  -0.00424
     545.00   3.736397     0.1276E+03   0.00909  -0.02272
     547.00   3.737987     0.1253E+03   0.00108  -0.00271
     549.00   3.739572     0.1268E+03   0.00648  -0.01620
     551.00   3.741152     0.1249E+03   0.00000   0.00000
     553.00   3.742725     0.1296E+03   0.01593  -0.03982
     555.00   3.744293     0.1319E+03   0.02343  -0.05856
     557.00   3.745855     0.1288E+03   0.01307  -0.03267
     559.00   3.747412     0.1256E+03   0.00224  -0.00561
     561.00   3.748963     0.1294E+03   0.01532  -0.03830
