age =   16.0    [Fe/H] =   -0.25

wavele(nm) log wave(A)   Hlam       log(Hlam/Hlam(V))  Hlam(mag(V)) 
      89.50   2.951823     0.8132E-13 -15.21158  38.02894
      90.50   2.956649     0.1647E-12 -14.90522  37.26306
      91.50   2.961421     0.2579E-12 -14.71039  36.77599
      92.50   2.966142     0.2185E-10 -12.78242  31.95605
      93.50   2.970812     0.3026E-10 -12.64092  31.60231
      94.50   2.975432     0.4379E-10 -12.48040  31.20101
      95.50   2.980003     0.6596E-10 -12.30251  30.75628
      96.50   2.984527     0.9653E-10 -12.13712  30.34281
      97.50   2.989005     0.1279E-09 -12.01502  30.03755
      98.50   2.993436     0.1821E-09 -11.86145  29.65364
      99.50   2.997823     0.2496E-09 -11.72457  29.31143
     100.50   3.002166     0.3670E-09 -11.55710  28.89275
     101.50   3.006466     0.4973E-09 -11.42518  28.56295
     102.50   3.010724     0.5619E-09 -11.37213  28.43033
     103.50   3.014940     0.9389E-09 -11.14917  27.87291
     104.50   3.019116     0.1302E-08 -11.00703  27.51758
     105.50   3.023252     0.1644E-08 -10.90594  27.26484
     106.50   3.027350     0.2238E-08 -10.77186  26.92964
     107.50   3.031409     0.3016E-08 -10.64230  26.60574
     108.50   3.035430     0.4077E-08 -10.51141  26.27852
     109.50   3.039414     0.5095E-08 -10.41465  26.03663
     110.50   3.043362     0.2504E-07  -9.72314  24.30784
     111.50   3.047275     0.4373E-07  -9.48099  23.70249
     112.50   3.051152     0.6621E-07  -9.30087  23.25218
     113.50   3.054996     0.1013E-06  -9.11606  22.79015
     114.50   3.058805     0.1349E-06  -8.99179  22.47947
     115.50   3.062582     0.1572E-06  -8.92525  22.31313
     116.50   3.066326     0.2088E-06  -8.80214  22.00535
     117.50   3.070038     0.2676E-06  -8.69429  21.73573
     118.50   3.073718     0.2830E-06  -8.66997  21.67492
     119.50   3.077368     0.2248E-06  -8.76997  21.92492
     120.50   3.080987     0.2111E-06  -8.79735  21.99339
     121.50   3.084576     0.4694E-07  -9.45025  23.62562
     122.50   3.088136     0.2828E-06  -8.67027  21.67567
     123.50   3.091667     0.6738E-06  -8.29323  20.73309
     124.50   3.095169     0.1051E-05  -8.10016  20.25040
     125.50   3.098644     0.1360E-05  -7.98817  19.97043
     126.50   3.102091     0.1515E-05  -7.94141  19.85352
     127.50   3.105510     0.1918E-05  -7.83883  19.59708
     128.50   3.108903     0.2273E-05  -7.76524  19.41309
     129.50   3.112270     0.2757E-05  -7.68134  19.20334
     130.50   3.115611     0.2985E-05  -7.64691  19.11728
     131.50   3.118926     0.3742E-05  -7.54872  18.87181
     132.50   3.122216     0.3989E-05  -7.52088  18.80220
     133.50   3.125481     0.4451E-05  -7.47336  18.68339
     134.50   3.128722     0.5266E-05  -7.40030  18.50076
     135.50   3.131939     0.6101E-05  -7.33639  18.34099
     136.50   3.135133     0.6617E-05  -7.30111  18.25278
     137.50   3.138303     0.7156E-05  -7.26713  18.16782
     138.50   3.141450     0.7872E-05  -7.22570  18.06424
     139.50   3.144574     0.8916E-05  -7.17161  17.92901
     140.50   3.147676     0.1072E-04  -7.09146  17.72865
     141.50   3.150756     0.1224E-04  -7.03383  17.58457
     142.50   3.153815     0.1399E-04  -6.97593  17.43982
     143.50   3.156852     0.1654E-04  -6.90318  17.25794
     144.20   3.158965     0.2154E-04  -6.78851  16.97128
     144.70   3.160469     0.1924E-04  -6.83753  17.09383
     145.50   3.162863     0.2273E-04  -6.76527  16.91317
     146.50   3.165838     0.2879E-04  -6.66249  16.65621
     147.50   3.168792     0.3286E-04  -6.60508  16.51269
     148.50   3.171726     0.3536E-04  -6.57327  16.43316
     149.50   3.174641     0.4645E-04  -6.45483  16.13708
     150.50   3.177536     0.5649E-04  -6.36983  15.92458
     151.20   3.179552     0.4293E-04  -6.48899  16.22247
     151.70   3.180986     0.5464E-04  -6.38424  15.96061
     152.50   3.183270     0.1229E-03  -6.03225  15.08062
     153.50   3.186108     0.1970E-03  -5.82735  14.56837
     154.50   3.188928     0.1633E-03  -5.90876  14.77189
     155.50   3.191730     0.2612E-03  -5.70487  14.26219
     156.50   3.194514     0.2474E-03  -5.72847  14.32117
     157.50   3.197281     0.4433E-03  -5.47505  13.68763
     158.50   3.200029     0.5358E-03  -5.39275  13.48188
     159.50   3.202761     0.6251E-03  -5.32582  13.31455
     160.50   3.205475     0.6700E-03  -5.29574  13.23934
     161.50   3.208173     0.7514E-03  -5.24590  13.11475
     162.50   3.210853     0.8351E-03  -5.20006  13.00016
     163.50   3.213518     0.9844E-03  -5.12861  12.82152
     164.50   3.216166     0.1381E-02  -4.98163  12.45408
     165.50   3.218798     0.9026E-03  -5.16630  12.91576
     166.50   3.221414     0.1592E-02  -4.91982  12.29955
     167.20   3.223236     0.1144E-02  -5.06318  12.65796
     167.70   3.224533     0.4113E-02  -4.50761  11.26903
     168.50   3.226600     0.4478E-02  -4.47069  11.17673
     169.50   3.229170     0.5402E-02  -4.38924  10.97309
     170.50   3.231725     0.6096E-02  -4.33677  10.84194
     171.50   3.234264     0.6822E-02  -4.28789  10.71973
     172.50   3.236789     0.8580E-02  -4.18831  10.47079
     173.50   3.239300     0.1105E-01  -4.07858  10.19645
     174.50   3.241796     0.1478E-01  -3.95217   9.88042
     175.50   3.244277     0.2152E-01  -3.78893   9.47232
     176.50   3.246745     0.1766E-01  -3.87481   9.68701
     177.50   3.249198     0.2106E-01  -3.79838   9.49596
     178.50   3.251638     0.2832E-01  -3.66965   9.17413
     179.50   3.254065     0.3837E-01  -3.53779   8.84447
     180.50   3.256477     0.4021E-01  -3.51745   8.79361
     181.50   3.258877     0.3398E-01  -3.59053   8.97634
     182.50   3.261263     0.4389E-01  -3.47940   8.69850
     183.50   3.263636     0.4525E-01  -3.46615   8.66538
     184.50   3.265996     0.2765E-01  -3.68013   9.20032
     185.50   3.268344     0.5214E-01  -3.40460   8.51150
     186.50   3.270679     0.6706E-01  -3.29531   8.23828
     187.50   3.273001     0.6988E-01  -3.27743   8.19358
     188.50   3.275311     0.7517E-01  -3.24574   8.11434
     189.50   3.277609     0.1015E+00  -3.11528   7.78821
     190.50   3.279895     0.9600E-01  -3.13952   7.84881
     191.50   3.282169     0.1089E+00  -3.08461   7.71153
     192.50   3.284431     0.9584E-01  -3.14022   7.85056
     193.50   3.286681     0.5468E-01  -3.38395   8.45986
     194.50   3.288920     0.1371E+00  -2.98468   7.46171
     195.50   3.291147     0.1437E+00  -2.96440   7.41101
     196.70   3.293804     0.1960E+00  -2.82959   7.07396
     197.60   3.295787     0.1685E+00  -2.89518   7.23796
     198.40   3.297542     0.2152E+00  -2.78904   6.97261
     199.50   3.299943     0.2355E+00  -2.74971   6.87429
     200.50   3.302114     0.2195E+00  -2.78043   6.95108
     201.50   3.304275     0.2424E+00  -2.73727   6.84317
     202.50   3.306425     0.1740E+00  -2.88118   7.20294
     203.50   3.308564     0.2715E+00  -2.68798   6.71996
     204.50   3.310693     0.3200E+00  -2.61660   6.54150
     205.50   3.312812     0.3127E+00  -2.62672   6.56679
     206.50   3.314920     0.3044E+00  -2.63837   6.59592
     207.40   3.316809     0.3400E+00  -2.59027   6.47568
     207.80   3.317646     0.9901E+00  -2.12612   5.31531
     208.50   3.319106     0.1311E+01  -2.00408   5.01021
     209.50   3.321184     0.1177E+01  -2.05098   5.12744
     210.50   3.323252     0.1139E+01  -2.06507   5.16268
     211.50   3.325310     0.1389E+01  -1.97902   4.94755
     212.50   3.327359     0.1172E+01  -2.05300   5.13249
     213.50   3.329398     0.1159E+01  -2.05771   5.14428
     214.50   3.331427     0.1583E+01  -1.92229   4.80573
     215.50   3.333447     0.1497E+01  -1.94670   4.86675
     216.50   3.335458     0.1236E+01  -2.02972   5.07430
     217.50   3.337459     0.1237E+01  -2.02933   5.07334
     218.50   3.339452     0.1807E+01  -1.86485   4.66211
     219.50   3.341434     0.1724E+01  -1.88533   4.71332
     220.50   3.343409     0.1704E+01  -1.89032   4.72581
     221.50   3.345374     0.1218E+01  -2.03597   5.08992
     222.50   3.347330     0.1618E+01  -1.91269   4.78172
     223.50   3.349277     0.2330E+01  -1.75436   4.38590
     224.50   3.351216     0.2208E+01  -1.77780   4.44450
     225.50   3.353147     0.1536E+01  -1.93535   4.83837
     226.50   3.355068     0.1306E+01  -2.00568   5.01419
     227.50   3.356982     0.1419E+01  -1.96987   4.92468
     228.50   3.358886     0.2286E+01  -1.76277   4.40692
     229.50   3.360783     0.1754E+01  -1.87783   4.69458
     230.50   3.362671     0.2312E+01  -1.75782   4.39455
     231.50   3.364551     0.1887E+01  -1.84612   4.61530
     232.50   3.366423     0.1586E+01  -1.92149   4.80373
     233.50   3.368287     0.1331E+01  -1.99774   4.99436
     234.50   3.370143     0.7929E+00  -2.22257   5.55641
     235.50   3.371991     0.1832E+01  -1.85898   4.64744
     236.50   3.373831     0.9350E+00  -2.15098   5.37746
     237.50   3.375664     0.1311E+01  -2.00410   5.01024
     238.50   3.377488     0.6897E+00  -2.28313   5.70782
     239.50   3.379306     0.9234E+00  -2.15641   5.39103
     240.50   3.381115     0.9598E+00  -2.13959   5.34898
     241.50   3.382917     0.1171E+01  -2.05314   5.13286
     242.50   3.384712     0.2382E+01  -1.74492   4.36230
     243.50   3.386499     0.2421E+01  -1.73784   4.34459
     244.50   3.388279     0.3038E+01  -1.63918   4.09795
     245.50   3.390052     0.3297E+01  -1.60372   4.00930
     246.50   3.391817     0.2617E+01  -1.70401   4.26002
     247.50   3.393575     0.2198E+01  -1.77973   4.44931
     248.50   3.395326     0.9110E+00  -2.16227   5.40567
     249.50   3.397071     0.1443E+01  -1.96263   4.90657
     250.50   3.398808     0.2539E+01  -1.71709   4.29272
     251.30   3.400192     0.8773E+00  -2.17865   5.44661
     251.80   3.401056     0.5912E+00  -2.35006   5.87514
     252.50   3.402261     0.7209E+00  -2.26391   5.65978
     253.50   3.403978     0.1722E+01  -1.88581   4.71451
     254.50   3.405688     0.1814E+01  -1.86325   4.65813
     255.50   3.407391     0.4168E+01  -1.50186   3.75464
     256.50   3.409087     0.2828E+01  -1.67031   4.17579
     257.50   3.410777     0.3939E+01  -1.52636   3.81590
     258.50   3.412461     0.3355E+01  -1.59603   3.99008
     259.50   3.414137     0.2947E+01  -1.65243   4.13108
     260.50   3.415808     0.2433E+01  -1.73558   4.33894
     261.50   3.417472     0.2135E+01  -1.79244   4.48111
     262.50   3.419129     0.3152E+01  -1.62320   4.05799
     263.50   3.420781     0.6509E+01  -1.30827   3.27067
     264.50   3.422426     0.8938E+01  -1.17052   2.92631
     265.50   3.424065     0.1349E+02  -0.99187   2.47968
     266.50   3.425697     0.8099E+01  -1.21336   3.03340
     267.50   3.427324     0.9221E+01  -1.15701   2.89253
     268.50   3.428944     0.1119E+02  -1.07301   2.68252
     269.50   3.430559     0.7377E+01  -1.25390   3.13475
     270.50   3.432167     0.9622E+01  -1.13853   2.84632
     271.50   3.433770     0.6436E+01  -1.31314   3.28285
     272.50   3.435366     0.4438E+01  -1.47458   3.68645
     273.50   3.436957     0.6262E+01  -1.32509   3.31273
     274.50   3.438542     0.3350E+01  -1.59676   3.99190
     275.50   3.440122     0.5031E+01  -1.42017   3.55043
     276.50   3.441695     0.7042E+01  -1.27410   3.18526
     277.50   3.443263     0.7398E+01  -1.25268   3.13170
     278.50   3.444825     0.3899E+01  -1.53081   3.82701
     279.50   3.446382     0.1569E+01  -1.92620   4.81551
     280.50   3.447933     0.1963E+01  -1.82878   4.57195
     281.50   3.449478     0.6211E+01  -1.32860   3.32150
     282.50   3.451018     0.9491E+01  -1.14450   2.86124
     283.50   3.452553     0.8426E+01  -1.19615   2.99037
     284.50   3.454082     0.5017E+01  -1.42136   3.55339
     285.50   3.455606     0.2363E+01  -1.74824   4.37059
     286.50   3.457125     0.7773E+01  -1.23120   3.07801
     287.50   3.458638     0.1227E+02  -1.03307   2.58267
     288.50   3.460146     0.1126E+02  -1.07019   2.67546
     289.50   3.461648     0.1497E+02  -0.94652   2.36631
     291.00   3.463893     0.2159E+02  -0.78763   1.96908
     293.00   3.466868     0.1949E+02  -0.83208   2.08019
     295.00   3.469822     0.1841E+02  -0.85671   2.14177
     297.00   3.472756     0.1922E+02  -0.83796   2.09490
     299.00   3.475671     0.2021E+02  -0.81629   2.04072
     301.00   3.478566     0.2014E+02  -0.81762   2.04406
     303.00   3.481443     0.2212E+02  -0.77692   1.94230
     305.00   3.484300     0.2319E+02  -0.75654   1.89135
     307.00   3.487138     0.2396E+02  -0.74229   1.85573
     309.00   3.489959     0.2157E+02  -0.78794   1.96986
     311.00   3.492760     0.2611E+02  -0.70493   1.76232
     313.00   3.495544     0.2342E+02  -0.75223   1.88058
     315.00   3.498311     0.2327E+02  -0.75503   1.88758
     317.00   3.501059     0.2673E+02  -0.69483   1.73708
     319.00   3.503791     0.2305E+02  -0.75903   1.89758
     321.00   3.506505     0.2567E+02  -0.71237   1.78094
     323.00   3.509202     0.2198E+02  -0.77971   1.94927
     325.00   3.511883     0.3211E+02  -0.61514   1.53784
     327.00   3.514548     0.3772E+02  -0.54519   1.36297
     329.00   3.517196     0.3693E+02  -0.55437   1.38593
     331.00   3.519828     0.3371E+02  -0.59399   1.48497
     333.00   3.522444     0.3501E+02  -0.57755   1.44388
     335.00   3.525045     0.3370E+02  -0.59417   1.48543
     337.00   3.527630     0.2360E+02  -0.74879   1.87198
     339.00   3.530200     0.2822E+02  -0.67130   1.67826
     341.00   3.532754     0.2957E+02  -0.65097   1.62744
     343.00   3.535294     0.3247E+02  -0.61025   1.52562
     345.00   3.537819     0.3524E+02  -0.57477   1.43693
     347.00   3.540329     0.3696E+02  -0.55403   1.38508
     349.00   3.542825     0.4176E+02  -0.50103   1.25257
     351.00   3.545307     0.4469E+02  -0.47153   1.17883
     353.00   3.547775     0.3988E+02  -0.52102   1.30256
     355.00   3.550228     0.4578E+02  -0.46110   1.15276
     357.00   3.552668     0.3270E+02  -0.60726   1.51815
     359.00   3.555094     0.3365E+02  -0.59486   1.48714
     361.00   3.557507     0.4248E+02  -0.49363   1.23408
     363.00   3.559907     0.4374E+02  -0.48090   1.20225
     364.00   3.561101     0.4491E+02  -0.46947   1.17367
     365.00   3.562293     0.4851E+02  -0.43593   1.08983
     367.00   3.564666     0.5229E+02  -0.40340   1.00850
     369.00   3.567026     0.4677E+02  -0.45179   1.12949
     371.00   3.569374     0.4902E+02  -0.43138   1.07845
     373.00   3.571709     0.3109E+02  -0.62918   1.57296
     375.00   3.574031     0.3588E+02  -0.56696   1.41740
     377.00   3.576341     0.4810E+02  -0.43960   1.09900
     379.00   3.578639     0.4949E+02  -0.42730   1.06825
     381.00   3.580925     0.4614E+02  -0.45769   1.14423
     383.00   3.583199     0.2494E+02  -0.72482   1.81205
     385.00   3.585461     0.3553E+02  -0.57121   1.42802
     387.00   3.587711     0.3469E+02  -0.58164   1.45410
     389.00   3.589950     0.4439E+02  -0.47453   1.18633
     391.00   3.592177     0.5436E+02  -0.38650   0.96626
     393.00   3.594393     0.2578E+02  -0.71053   1.77633
     395.00   3.596597     0.4763E+02  -0.44387   1.10968
     397.00   3.598790     0.3263E+02  -0.60813   1.52031
     399.00   3.600973     0.7184E+02  -0.26542   0.66355
     401.00   3.603144     0.7914E+02  -0.22341   0.55852
     403.00   3.605305     0.7770E+02  -0.23137   0.57842
     405.00   3.607455     0.7462E+02  -0.24894   0.62235
     407.00   3.609594     0.7039E+02  -0.27430   0.68576
     409.00   3.611723     0.8742E+02  -0.18019   0.45047
     411.00   3.613842     0.8210E+02  -0.20745   0.51862
     413.00   3.615950     0.8007E+02  -0.21834   0.54586
     415.00   3.618048     0.7792E+02  -0.23015   0.57537
     417.00   3.620136     0.7971E+02  -0.22026   0.55065
     419.00   3.622214     0.7717E+02  -0.23433   0.58582
     421.00   3.624282     0.7781E+02  -0.23077   0.57691
     423.00   3.626340     0.7325E+02  -0.25696   0.64240
     425.00   3.628389     0.7775E+02  -0.23109   0.57772
     427.00   3.630428     0.7301E+02  -0.25838   0.64595
     429.00   3.632457     0.6792E+02  -0.28978   0.72444
     431.00   3.634477     0.5807E+02  -0.35782   0.89455
     433.00   3.636488     0.8804E+02  -0.17710   0.44275
     435.00   3.638489     0.8749E+02  -0.17984   0.44961
     437.00   3.640481     0.9434E+02  -0.14707   0.36768
     439.00   3.642465     0.8377E+02  -0.19869   0.49674
     441.00   3.644439     0.8987E+02  -0.16817   0.42042
     443.00   3.646404     0.9846E+02  -0.12854   0.32135
     445.00   3.648360     0.9901E+02  -0.12611   0.31526
     447.00   3.650307     0.1061E+03  -0.09590   0.23974
     449.00   3.652246     0.1094E+03  -0.08283   0.20706
     451.00   3.654176     0.1237E+03  -0.02939   0.07347
     453.00   3.656098     0.1088E+03  -0.08508   0.21271
     455.00   3.658011     0.1146E+03  -0.06274   0.15684
     457.00   3.659916     0.1237E+03  -0.02942   0.07354
     459.00   3.661813     0.1164E+03  -0.05585   0.13962
     461.00   3.663701     0.1205E+03  -0.04096   0.10241
     463.00   3.665581     0.1180E+03  -0.04976   0.12440
     465.00   3.667453     0.1193E+03  -0.04507   0.11269
     467.00   3.669317     0.1245E+03  -0.02648   0.06620
     469.00   3.671173     0.1224E+03  -0.03412   0.08531
     471.00   3.673021     0.1198E+03  -0.04341   0.10852
     473.00   3.674861     0.1233E+03  -0.03080   0.07700
     475.00   3.676694     0.1261E+03  -0.02109   0.05274
     477.00   3.678518     0.1231E+03  -0.03139   0.07848
     479.00   3.680336     0.1242E+03  -0.02754   0.06886
     481.00   3.682145     0.1251E+03  -0.02450   0.06125
     483.00   3.683947     0.1285E+03  -0.01286   0.03215
     485.00   3.685742     0.1237E+03  -0.02936   0.07340
     487.00   3.687529     0.1143E+03  -0.06382   0.15955
     489.00   3.689309     0.1256E+03  -0.02296   0.05741
     491.00   3.691082     0.1265E+03  -0.01978   0.04945
     493.00   3.692847     0.1243E+03  -0.02731   0.06828
     495.00   3.694605     0.1288E+03  -0.01204   0.03009
     497.00   3.696356     0.1247E+03  -0.02586   0.06465
     499.00   3.698101     0.1165E+03  -0.05538   0.13844
     501.00   3.699838     0.1102E+03  -0.07946   0.19864
     503.00   3.701568     0.1176E+03  -0.05141   0.12854
     505.00   3.703291     0.1173E+03  -0.05252   0.13129
     507.00   3.705008     0.1222E+03  -0.03457   0.08643
     509.00   3.706718     0.1163E+03  -0.05605   0.14013
     511.00   3.708421     0.1189E+03  -0.04647   0.11618
     513.00   3.710117     0.1158E+03  -0.05800   0.14500
     515.00   3.711807     0.1117E+03  -0.07389   0.18471
     517.00   3.713490     0.1007E+03  -0.11887   0.29717
     519.00   3.715167     0.1050E+03  -0.10044   0.25109
     521.00   3.716838     0.1140E+03  -0.06492   0.16231
     523.00   3.718502     0.1248E+03  -0.02548   0.06370
     525.00   3.720159     0.1304E+03  -0.00665   0.01664
     527.00   3.721811     0.1149E+03  -0.06129   0.15321
     529.00   3.723456     0.1329E+03   0.00167  -0.00417
     531.00   3.725095     0.1407E+03   0.02642  -0.06605
     533.00   3.726727     0.1248E+03  -0.02564   0.06410
     535.00   3.728354     0.1368E+03   0.01425  -0.03562
     537.00   3.729974     0.1353E+03   0.00960  -0.02399
     539.00   3.731589     0.1331E+03   0.00231  -0.00577
     541.00   3.733197     0.1310E+03  -0.00460   0.01150
     543.00   3.734800     0.1329E+03   0.00181  -0.00451
     545.00   3.736397     0.1352E+03   0.00929  -0.02324
     547.00   3.737987     0.1327E+03   0.00104  -0.00261
     549.00   3.739572     0.1343E+03   0.00637  -0.01593
     551.00   3.741152     0.1324E+03   0.00000   0.00000
     553.00   3.742725     0.1373E+03   0.01576  -0.03940
     555.00   3.744293     0.1396E+03   0.02324  -0.05809
     557.00   3.745855     0.1364E+03   0.01289  -0.03222
     559.00   3.747412     0.1330E+03   0.00217  -0.00543
     561.00   3.748963     0.1371E+03   0.01518  -0.03794
