age =   15.0    [Fe/H] =    0.00

wavele(nm) log wave(A)   Hlam       log(Hlam/Hlam(V))  Hlam(mag(V)) 
      89.50   2.951823     0.6099E-13 -15.32370  38.30924
      90.50   2.956649     0.1008E-12 -15.10531  37.76328
      91.50   2.961421     0.1584E-12 -14.90914  37.27285
      92.50   2.966142     0.5765E-11 -13.34816  33.37040
      93.50   2.970812     0.8080E-11 -13.20155  33.00387
      94.50   2.975432     0.1194E-10 -13.03206  32.58014
      95.50   2.980003     0.1830E-10 -12.84641  32.11603
      96.50   2.984527     0.2737E-10 -12.67161  31.67904
      97.50   2.989005     0.3696E-10 -12.54127  31.35316
      98.50   2.993436     0.5283E-10 -12.38606  30.96515
      99.50   2.997823     0.7302E-10 -12.24553  30.61382
     100.50   3.002166     0.1097E-09 -12.06895  30.17237
     101.50   3.006466     0.1513E-09 -11.92924  29.82309
     102.50   3.010724     0.1758E-09 -11.86390  29.65974
     103.50   3.014940     0.2933E-09 -11.64159  29.10398
     104.50   3.019116     0.4108E-09 -11.49532  28.73830
     105.50   3.023252     0.5228E-09 -11.39061  28.47653
     106.50   3.027350     0.7219E-09 -11.25049  28.12622
     107.50   3.031409     0.9831E-09 -11.11634  27.79086
     108.50   3.035430     0.1336E-08 -10.98320  27.45799
     109.50   3.039414     0.1676E-08 -10.88478  27.21196
     110.50   3.043362     0.5077E-08 -10.40333  26.00832
     111.50   3.047275     0.8061E-08 -10.20256  25.50641
     112.50   3.051152     0.1177E-07 -10.03808  25.09520
     113.50   3.054996     0.1752E-07  -9.86530  24.66325
     114.50   3.058805     0.2355E-07  -9.73697  24.34242
     115.50   3.062582     0.2833E-07  -9.65679  24.14196
     116.50   3.066326     0.3841E-07  -9.52449  23.81123
     117.50   3.070038     0.5013E-07  -9.40883  23.52207
     118.50   3.073718     0.5712E-07  -9.35219  23.38046
     119.50   3.077368     0.5332E-07  -9.38210  23.45524
     120.50   3.080987     0.6004E-07  -9.33054  23.32635
     121.50   3.084576     0.1876E-07  -9.83575  24.58938
     122.50   3.088136     0.8394E-07  -9.18500  22.96249
     123.50   3.091667     0.1528E-06  -8.92476  22.31190
     124.50   3.095169     0.2029E-06  -8.80163  22.00407
     125.50   3.098644     0.2436E-06  -8.72221  21.80552
     126.50   3.102091     0.2705E-06  -8.67678  21.69195
     127.50   3.105510     0.3301E-06  -8.59034  21.47585
     128.50   3.108903     0.3717E-06  -8.53879  21.34698
     129.50   3.112270     0.4539E-06  -8.45204  21.13010
     130.50   3.115611     0.4879E-06  -8.42063  21.05157
     131.50   3.118926     0.6100E-06  -8.32363  20.80906
     132.50   3.122216     0.6417E-06  -8.30164  20.75411
     133.50   3.125481     0.7224E-06  -8.25016  20.62540
     134.50   3.128722     0.8630E-06  -8.17296  20.43240
     135.50   3.131939     0.1023E-05  -8.09912  20.24780
     136.50   3.135133     0.1109E-05  -8.06390  20.15976
     137.50   3.138303     0.1220E-05  -8.02272  20.05680
     138.50   3.141450     0.1358E-05  -7.97590  19.93975
     139.50   3.144574     0.1545E-05  -7.92004  19.80011
     140.50   3.147676     0.1905E-05  -7.82905  19.57262
     141.50   3.150756     0.2197E-05  -7.76704  19.41759
     142.50   3.153815     0.2567E-05  -7.69953  19.24883
     143.50   3.156852     0.3093E-05  -7.61859  19.04647
     144.20   3.158965     0.3978E-05  -7.50934  18.77336
     144.70   3.160469     0.3627E-05  -7.54944  18.87359
     145.50   3.162863     0.4273E-05  -7.47818  18.69544
     146.50   3.165838     0.5534E-05  -7.36592  18.41479
     147.50   3.168792     0.6380E-05  -7.30414  18.26034
     148.50   3.171726     0.6932E-05  -7.26808  18.17019
     149.50   3.174641     0.9077E-05  -7.15100  17.87750
     150.50   3.177536     0.1117E-04  -7.06089  17.65222
     151.20   3.179552     0.8652E-05  -7.17182  17.92954
     151.70   3.180986     0.1101E-04  -7.06706  17.66765
     152.50   3.183270     0.2745E-04  -6.67044  16.67610
     153.50   3.186108     0.4690E-04  -6.43776  16.09441
     154.50   3.188928     0.3837E-04  -6.52492  16.31229
     155.50   3.191730     0.6551E-04  -6.29263  15.73158
     156.50   3.194514     0.6193E-04  -6.31707  15.79268
     157.50   3.197281     0.1235E-03  -6.01721  15.04302
     158.50   3.200029     0.1510E-03  -5.93008  14.82520
     159.50   3.202761     0.1780E-03  -5.85855  14.64637
     160.50   3.205475     0.1906E-03  -5.82875  14.57188
     161.50   3.208173     0.2095E-03  -5.78780  14.46949
     162.50   3.210853     0.2373E-03  -5.73371  14.33427
     163.50   3.213518     0.2836E-03  -5.65626  14.14066
     164.50   3.216166     0.4084E-03  -5.49789  13.74473
     165.50   3.218798     0.2689E-03  -5.67942  14.19856
     166.50   3.221414     0.4802E-03  -5.42757  13.56892
     167.20   3.223236     0.3355E-03  -5.58330  13.95826
     167.70   3.224533     0.1319E-02  -4.98869  12.47173
     168.50   3.226600     0.1488E-02  -4.93627  12.34067
     169.50   3.229170     0.1881E-02  -4.83462  12.08654
     170.50   3.231725     0.2023E-02  -4.80289  12.00721
     171.50   3.234264     0.1902E-02  -4.82977  12.07443
     172.50   3.236789     0.2491E-02  -4.71252  11.78131
     173.50   3.239300     0.2983E-02  -4.63436  11.58590
     174.50   3.241796     0.4161E-02  -4.48972  11.22430
     175.50   3.244277     0.5620E-02  -4.35925  10.89813
     176.50   3.246745     0.5322E-02  -4.38285  10.95712
     177.50   3.249198     0.5734E-02  -4.35052  10.87629
     178.50   3.251638     0.7662E-02  -4.22462  10.56155
     179.50   3.254065     0.9154E-02  -4.14733  10.36833
     180.50   3.256477     0.1001E-01  -4.10838  10.27095
     181.50   3.258877     0.9410E-02  -4.13535  10.33838
     182.50   3.261263     0.1206E-01  -4.02751  10.06878
     183.50   3.263636     0.1259E-01  -4.00883  10.02207
     184.50   3.265996     0.9731E-02  -4.12081  10.30202
     185.50   3.268344     0.1388E-01  -3.96662   9.91654
     186.50   3.270679     0.1642E-01  -3.89356   9.73390
     187.50   3.273001     0.1783E-01  -3.85774   9.64435
     188.50   3.275311     0.1924E-01  -3.82477   9.56192
     189.50   3.277609     0.2532E-01  -3.70553   9.26382
     190.50   3.279895     0.2475E-01  -3.71538   9.28845
     191.50   3.282169     0.2788E-01  -3.66360   9.15901
     192.50   3.284431     0.2843E-01  -3.65515   9.13787
     193.50   3.286681     0.2043E-01  -3.79866   9.49664
     194.50   3.288920     0.3687E-01  -3.54225   8.85562
     195.50   3.291147     0.3908E-01  -3.51704   8.79260
     196.70   3.293804     0.5061E-01  -3.40473   8.51183
     197.60   3.295787     0.4912E-01  -3.41770   8.54426
     198.40   3.297542     0.5725E-01  -3.35117   8.37794
     199.50   3.299943     0.5914E-01  -3.33706   8.34265
     200.50   3.302114     0.5822E-01  -3.34390   8.35974
     201.50   3.304275     0.6453E-01  -3.29919   8.24798
     202.50   3.306425     0.5314E-01  -3.38352   8.45880
     203.50   3.308564     0.7298E-01  -3.24573   8.11433
     204.50   3.310693     0.8435E-01  -3.18287   7.95717
     205.50   3.312812     0.8843E-01  -3.16235   7.90588
     206.50   3.314920     0.8877E-01  -3.16067   7.90169
     207.40   3.316809     0.9629E-01  -3.12538   7.81346
     207.80   3.317646     0.2751E+00  -2.66954   6.67385
     208.50   3.319106     0.3760E+00  -2.53381   6.33453
     209.50   3.321184     0.3468E+00  -2.56890   6.42226
     210.50   3.323252     0.3526E+00  -2.56163   6.40407
     211.50   3.325310     0.4251E+00  -2.48050   6.20124
     212.50   3.327359     0.3765E+00  -2.53316   6.33290
     213.50   3.329398     0.3858E+00  -2.52264   6.30659
     214.50   3.331427     0.5154E+00  -2.39681   5.99202
     215.50   3.333447     0.4767E+00  -2.43071   6.07677
     216.50   3.335458     0.4173E+00  -2.48849   6.22123
     217.50   3.337459     0.4070E+00  -2.49940   6.24849
     218.50   3.339452     0.6025E+00  -2.32897   5.82241
     219.50   3.341434     0.5647E+00  -2.35717   5.89292
     220.50   3.343409     0.5793E+00  -2.34602   5.86504
     221.50   3.345374     0.4244E+00  -2.48117   6.20293
     222.50   3.347330     0.5660E+00  -2.35613   5.89032
     223.50   3.349277     0.8366E+00  -2.18647   5.46616
     224.50   3.351216     0.8029E+00  -2.20431   5.51076
     225.50   3.353147     0.5856E+00  -2.34134   5.85336
     226.50   3.355068     0.4821E+00  -2.42579   6.06447
     227.50   3.356982     0.5347E+00  -2.38085   5.95212
     228.50   3.358886     0.8920E+00  -2.15861   5.39653
     229.50   3.360783     0.6789E+00  -2.27712   5.69280
     230.50   3.362671     0.8778E+00  -2.16554   5.41385
     231.50   3.364551     0.7348E+00  -2.24278   5.60694
     232.50   3.366423     0.6487E+00  -2.29690   5.74225
     233.50   3.368287     0.5945E+00  -2.33483   5.83708
     234.50   3.370143     0.3748E+00  -2.53518   6.33794
     235.50   3.371991     0.7517E+00  -2.23289   5.58223
     236.50   3.373831     0.4460E+00  -2.45962   6.14905
     237.50   3.375664     0.5831E+00  -2.34324   5.85809
     238.50   3.377488     0.3633E+00  -2.54864   6.37161
     239.50   3.379306     0.4604E+00  -2.44586   6.11466
     240.50   3.381115     0.4955E+00  -2.41394   6.03486
     241.50   3.382917     0.5310E+00  -2.38387   5.95968
     242.50   3.384712     0.9985E+00  -2.10959   5.27398
     243.50   3.386499     0.1053E+01  -2.08634   5.21585
     244.50   3.388279     0.1327E+01  -1.98593   4.96484
     245.50   3.390052     0.1465E+01  -1.94303   4.85758
     246.50   3.391817     0.1105E+01  -2.06562   5.16406
     247.50   3.393575     0.9596E+00  -2.12685   5.31713
     248.50   3.395326     0.3970E+00  -2.51022   6.27555
     249.50   3.397071     0.6216E+00  -2.31547   5.78868
     250.50   3.398808     0.1089E+01  -2.07203   5.18007
     251.30   3.400192     0.4518E+00  -2.45400   6.13501
     251.80   3.401056     0.3205E+00  -2.60316   6.50789
     252.50   3.402261     0.3714E+00  -2.53915   6.34787
     253.50   3.403978     0.8525E+00  -2.17826   5.44565
     254.50   3.405688     0.8930E+00  -2.15808   5.39521
     255.50   3.407391     0.2272E+01  -1.75249   4.38124
     256.50   3.409087     0.1497E+01  -1.93379   4.83448
     257.50   3.410777     0.2175E+01  -1.77151   4.42877
     258.50   3.412461     0.1869E+01  -1.83739   4.59348
     259.50   3.414137     0.1678E+01  -1.88411   4.71026
     260.50   3.415808     0.1444E+01  -1.94952   4.87381
     261.50   3.417472     0.1279E+01  -2.00199   5.00498
     262.50   3.419129     0.1854E+01  -1.84076   4.60189
     263.50   3.420781     0.3985E+01  -1.50854   3.77135
     264.50   3.422426     0.5334E+01  -1.38187   3.45467
     265.50   3.424065     0.8768E+01  -1.16608   2.91519
     266.50   3.425697     0.4811E+01  -1.42672   3.56680
     267.50   3.427324     0.5476E+01  -1.37047   3.42619
     268.50   3.428944     0.6930E+01  -1.26825   3.17062
     269.50   3.430559     0.4341E+01  -1.47141   3.67851
     270.50   3.432167     0.5952E+01  -1.33430   3.33575
     271.50   3.433770     0.3896E+01  -1.51834   3.79584
     272.50   3.435366     0.2426E+01  -1.72402   4.31004
     273.50   3.436957     0.3587E+01  -1.55419   3.88548
     274.50   3.438542     0.2067E+01  -1.79360   4.48401
     275.50   3.440122     0.3044E+01  -1.62554   4.06386
     276.50   3.441695     0.4275E+01  -1.47807   3.69517
     277.50   3.443263     0.4490E+01  -1.45676   3.64190
     278.50   3.444825     0.2469E+01  -1.71652   4.29130
     279.50   3.446382     0.1094E+01  -2.06978   5.17444
     280.50   3.447933     0.1353E+01  -1.97760   4.94400
     281.50   3.449478     0.3826E+01  -1.52623   3.81556
     282.50   3.451018     0.5684E+01  -1.35433   3.38583
     283.50   3.452553     0.4910E+01  -1.41792   3.54479
     284.50   3.454082     0.2771E+01  -1.66637   4.16592
     285.50   3.455606     0.1339E+01  -1.98206   4.95514
     286.50   3.457125     0.4344E+01  -1.47106   3.67766
     287.50   3.458638     0.7618E+01  -1.22713   3.06782
     288.50   3.460146     0.7182E+01  -1.25273   3.13183
     289.50   3.461648     0.1024E+02  -1.09860   2.74651
     291.00   3.463893     0.1572E+02  -0.91241   2.28103
     293.00   3.466868     0.1488E+02  -0.93647   2.34118
     295.00   3.469822     0.1471E+02  -0.94130   2.35325
     297.00   3.472756     0.1575E+02  -0.91160   2.27900
     299.00   3.475671     0.1718E+02  -0.87389   2.18472
     301.00   3.478566     0.1724E+02  -0.87234   2.18086
     303.00   3.481443     0.1942E+02  -0.82063   2.05158
     305.00   3.484300     0.1997E+02  -0.80858   2.02146
     307.00   3.487138     0.1961E+02  -0.81652   2.04129
     309.00   3.489959     0.1646E+02  -0.89241   2.23102
     311.00   3.492760     0.2084E+02  -0.79008   1.97520
     313.00   3.495544     0.1808E+02  -0.85173   2.12932
     315.00   3.498311     0.1833E+02  -0.84568   2.11421
     317.00   3.501059     0.2161E+02  -0.77430   1.93575
     319.00   3.503791     0.1809E+02  -0.85155   2.12888
     321.00   3.506505     0.2015E+02  -0.80470   2.01176
     323.00   3.509202     0.1717E+02  -0.87411   2.18528
     325.00   3.511883     0.2603E+02  -0.69346   1.73364
     327.00   3.514548     0.3045E+02  -0.62537   1.56343
     329.00   3.517196     0.2988E+02  -0.63363   1.58408
     331.00   3.519828     0.2678E+02  -0.68117   1.70293
     333.00   3.522444     0.2811E+02  -0.66015   1.65036
     335.00   3.525045     0.2712E+02  -0.67570   1.68924
     337.00   3.527630     0.1850E+02  -0.84189   2.10474
     339.00   3.530200     0.2230E+02  -0.76070   1.90174
     341.00   3.532754     0.2368E+02  -0.73456   1.83640
     343.00   3.535294     0.2610E+02  -0.69233   1.73082
     345.00   3.537819     0.3027E+02  -0.62793   1.56982
     347.00   3.540329     0.3194E+02  -0.60462   1.51155
     349.00   3.542825     0.3603E+02  -0.55229   1.38073
     351.00   3.545307     0.3808E+02  -0.52825   1.32063
     353.00   3.547775     0.3333E+02  -0.58612   1.46531
     355.00   3.550228     0.3702E+02  -0.54052   1.35130
     357.00   3.552668     0.2762E+02  -0.66773   1.66932
     359.00   3.555094     0.2980E+02  -0.63480   1.58699
     361.00   3.557507     0.3799E+02  -0.52934   1.32334
     363.00   3.559907     0.3871E+02  -0.52112   1.30280
     364.00   3.561101     0.3818E+02  -0.52718   1.31794
     365.00   3.562293     0.4000E+02  -0.50694   1.26736
     367.00   3.564666     0.4399E+02  -0.46560   1.16401
     369.00   3.567026     0.3817E+02  -0.52729   1.31822
     371.00   3.569374     0.3950E+02  -0.51231   1.28078
     373.00   3.571709     0.2286E+02  -0.74990   1.87475
     375.00   3.574031     0.2680E+02  -0.68086   1.70214
     377.00   3.576341     0.3804E+02  -0.52871   1.32178
     379.00   3.578639     0.3913E+02  -0.51643   1.29107
     381.00   3.580925     0.3513E+02  -0.56333   1.40833
     383.00   3.583199     0.1755E+02  -0.86458   2.16145
     385.00   3.585461     0.2520E+02  -0.70753   1.76883
     387.00   3.587711     0.2490E+02  -0.71269   1.78172
     389.00   3.589950     0.3514E+02  -0.56319   1.40798
     391.00   3.592177     0.4454E+02  -0.46025   1.15062
     393.00   3.594393     0.1992E+02  -0.80971   2.02428
     395.00   3.596597     0.3787E+02  -0.53066   1.32666
     397.00   3.598790     0.2571E+02  -0.69879   1.74696
     399.00   3.600973     0.6164E+02  -0.31910   0.79774
     401.00   3.603144     0.6908E+02  -0.26960   0.67400
     403.00   3.605305     0.6752E+02  -0.27954   0.69884
     405.00   3.607455     0.6439E+02  -0.30014   0.75036
     407.00   3.609594     0.5977E+02  -0.33249   0.83124
     409.00   3.611723     0.7799E+02  -0.21693   0.54232
     411.00   3.613842     0.7280E+02  -0.24684   0.61709
     413.00   3.615950     0.6946E+02  -0.26719   0.66799
     415.00   3.618048     0.6717E+02  -0.28177   0.70441
     417.00   3.620136     0.6878E+02  -0.27149   0.67873
     419.00   3.622214     0.6708E+02  -0.28235   0.70588
     421.00   3.624282     0.6801E+02  -0.27640   0.69101
     423.00   3.626340     0.6314E+02  -0.30863   0.77158
     425.00   3.628389     0.6930E+02  -0.26825   0.67061
     427.00   3.630428     0.6483E+02  -0.29721   0.74303
     429.00   3.632457     0.6045E+02  -0.32757   0.81894
     431.00   3.634477     0.5231E+02  -0.39040   0.97599
     433.00   3.636488     0.8088E+02  -0.20109   0.50272
     435.00   3.638489     0.8159E+02  -0.19731   0.49328
     437.00   3.640481     0.8839E+02  -0.16255   0.40638
     439.00   3.642465     0.7664E+02  -0.22452   0.56129
     441.00   3.644439     0.8199E+02  -0.19519   0.48798
     443.00   3.646404     0.8992E+02  -0.15510   0.38775
     445.00   3.648360     0.9116E+02  -0.14914   0.37286
     447.00   3.650307     0.9886E+02  -0.11393   0.28483
     449.00   3.652246     0.1023E+03  -0.09917   0.24792
     451.00   3.654176     0.1185E+03  -0.03507   0.08767
     453.00   3.656098     0.1018E+03  -0.10117   0.25292
     455.00   3.658011     0.1080E+03  -0.07569   0.18922
     457.00   3.659916     0.1180E+03  -0.03696   0.09240
     459.00   3.661813     0.1104E+03  -0.06594   0.16486
     461.00   3.663701     0.1144E+03  -0.05062   0.12655
     463.00   3.665581     0.1111E+03  -0.06306   0.15765
     465.00   3.667453     0.1128E+03  -0.05678   0.14194
     467.00   3.669317     0.1188E+03  -0.03431   0.08578
     469.00   3.671173     0.1158E+03  -0.04540   0.11351
     471.00   3.673021     0.1133E+03  -0.05467   0.13668
     473.00   3.674861     0.1171E+03  -0.04045   0.10113
     475.00   3.676694     0.1203E+03  -0.02856   0.07140
     477.00   3.678518     0.1171E+03  -0.04035   0.10088
     479.00   3.680336     0.1185E+03  -0.03512   0.08780
     481.00   3.682145     0.1194E+03  -0.03211   0.08028
     483.00   3.683947     0.1240E+03  -0.01554   0.03884
     485.00   3.685742     0.1186E+03  -0.03496   0.08740
     487.00   3.687529     0.1092E+03  -0.07063   0.17657
     489.00   3.689309     0.1206E+03  -0.02775   0.06938
     491.00   3.691082     0.1214E+03  -0.02471   0.06177
     493.00   3.692847     0.1190E+03  -0.03353   0.08383
     495.00   3.694605     0.1239E+03  -0.01590   0.03976
     497.00   3.696356     0.1185E+03  -0.03509   0.08774
     499.00   3.698101     0.1099E+03  -0.06790   0.16976
     501.00   3.699838     0.1029E+03  -0.09647   0.24118
     503.00   3.701568     0.1107E+03  -0.06489   0.16222
     505.00   3.703291     0.1105E+03  -0.06554   0.16385
     507.00   3.705008     0.1157E+03  -0.04564   0.11410
     509.00   3.706718     0.1090E+03  -0.07158   0.17894
     511.00   3.708421     0.1121E+03  -0.05942   0.14855
     513.00   3.710117     0.1085E+03  -0.07369   0.18422
     515.00   3.711807     0.1042E+03  -0.09089   0.22721
     517.00   3.713490     0.9191E+02  -0.14560   0.36400
     519.00   3.715167     0.9672E+02  -0.12343   0.30857
     521.00   3.716838     0.1072E+03  -0.07880   0.19700
     523.00   3.718502     0.1196E+03  -0.03138   0.07846
     525.00   3.720159     0.1260E+03  -0.00871   0.02177
     527.00   3.721811     0.1088E+03  -0.07223   0.18057
     529.00   3.723456     0.1291E+03   0.00184  -0.00459
     531.00   3.725095     0.1384E+03   0.03225  -0.08063
     533.00   3.726727     0.1198E+03  -0.03045   0.07612
     535.00   3.728354     0.1336E+03   0.01683  -0.04208
     537.00   3.729974     0.1322E+03   0.01220  -0.03050
     539.00   3.731589     0.1292E+03   0.00236  -0.00589
     541.00   3.733197     0.1273E+03  -0.00423   0.01058
     543.00   3.734800     0.1294E+03   0.00309  -0.00773
     545.00   3.736397     0.1320E+03   0.01162  -0.02904
     547.00   3.737987     0.1289E+03   0.00127  -0.00318
     549.00   3.739572     0.1311E+03   0.00878  -0.02196
     551.00   3.741152     0.1285E+03   0.00000   0.00000
     553.00   3.742725     0.1343E+03   0.01917  -0.04794
     555.00   3.744293     0.1370E+03   0.02785  -0.06962
     557.00   3.745855     0.1340E+03   0.01808  -0.04520
     559.00   3.747412     0.1300E+03   0.00506  -0.01264
     561.00   3.748963     0.1349E+03   0.02092  -0.05229
