age =   16.0    [Fe/H] =    0.25

wavele(nm) log wave(A)   Hlam       log(Hlam/Hlam(V))  Hlam(mag(V)) 
      90.50   2.956649     0.7223E-14 -16.12319  40.30798
      91.50   2.961421     0.1225E-12 -14.89379  37.23448
      92.50   2.966142     0.5310E-12 -14.25677  35.64193
      93.50   2.970812     0.7699E-12 -14.09547  35.23868
      94.50   2.975432     0.1181E-11 -13.90968  34.77419
      95.50   2.980003     0.1801E-11 -13.72630  34.31574
      96.50   2.984527     0.2873E-11 -13.52350  33.80875
      97.50   2.989005     0.4062E-11 -13.37320  33.43299
      98.50   2.993436     0.5940E-11 -13.20809  33.02023
      99.50   2.997823     0.8450E-11 -13.05507  32.63766
     100.50   3.002166     0.1269E-10 -12.87830  32.19575
     101.50   3.006466     0.1820E-10 -12.72179  31.80448
     102.50   3.010724     0.2290E-10 -12.62210  31.55526
     103.50   3.014940     0.3687E-10 -12.41528  31.03820
     104.50   3.019116     0.5244E-10 -12.26224  30.65559
     105.50   3.023252     0.6826E-10 -12.14776  30.36939
     106.50   3.027350     0.9734E-10 -11.99362  29.98404
     107.50   3.031409     0.1341E-09 -11.85447  29.63616
     108.50   3.035430     0.1838E-09 -11.71759  29.29398
     109.50   3.039414     0.2357E-09 -11.60955  29.02387
     110.50   3.043362     0.3363E-09 -11.45521  28.63802
     111.50   3.047275     0.4613E-09 -11.31794  28.29486
     112.50   3.051152     0.6419E-09 -11.17444  27.93609
     113.50   3.054996     0.9086E-09 -11.02350  27.55876
     114.50   3.058805     0.1217E-08 -10.89677  27.24192
     115.50   3.062582     0.1567E-08 -10.78693  26.96733
     116.50   3.066326     0.2080E-08 -10.66389  26.65973
     117.50   3.070038     0.2747E-08 -10.54300  26.35751
     118.50   3.073718     0.3416E-08 -10.44843  26.12107
     119.50   3.077368     0.4034E-08 -10.37617  25.94044
     120.50   3.080987     0.4961E-08 -10.28632  25.71579
     121.50   3.084576     0.3992E-08 -10.38071  25.95178
     122.50   3.088136     0.7696E-08 -10.09565  25.23912
     123.50   3.091667     0.1090E-07  -9.94454  24.86136
     124.50   3.095169     0.1374E-07  -9.84394  24.60985
     125.50   3.098644     0.1681E-07  -9.75625  24.39062
     126.50   3.102091     0.2043E-07  -9.67155  24.17888
     127.50   3.105510     0.2518E-07  -9.58090  23.95226
     128.50   3.108903     0.2951E-07  -9.51192  23.77980
     129.50   3.112270     0.3630E-07  -9.42203  23.55507
     130.50   3.115611     0.4287E-07  -9.34974  23.37434
     131.50   3.118926     0.5346E-07  -9.25390  23.13476
     132.50   3.122216     0.6138E-07  -9.19384  22.98459
     133.50   3.125481     0.7249E-07  -9.12162  22.80405
     134.50   3.128722     0.8882E-07  -9.03339  22.58347
     135.50   3.131939     0.1088E-06  -8.94527  22.36316
     136.50   3.135133     0.1259E-06  -8.88177  22.20442
     137.50   3.138303     0.1473E-06  -8.81377  22.03443
     138.50   3.141450     0.1721E-06  -8.74609  21.86523
     139.50   3.144574     0.2033E-06  -8.67368  21.68419
     140.50   3.147676     0.2495E-06  -8.58483  21.46208
     141.50   3.150756     0.2963E-06  -8.51017  21.27543
     142.50   3.153815     0.3527E-06  -8.43453  21.08633
     143.50   3.156852     0.4250E-06  -8.35350  20.88374
     144.20   3.158965     0.5070E-06  -8.27692  20.69231
     144.70   3.160469     0.5144E-06  -8.27058  20.67645
     145.50   3.162863     0.5980E-06  -8.20516  20.51291
     146.50   3.165838     0.7387E-06  -8.11346  20.28364
     147.50   3.168792     0.8644E-06  -8.04518  20.11294
     148.50   3.171726     0.9872E-06  -7.98748  19.96870
     149.50   3.174641     0.1222E-05  -7.89495  19.73738
     150.50   3.177536     0.1473E-05  -7.81383  19.53457
     151.20   3.179552     0.1411E-05  -7.83246  19.58116
     151.70   3.180986     0.1634E-05  -7.76875  19.42188
     152.50   3.183270     0.2944E-05  -7.51295  18.78238
     153.50   3.186108     0.4574E-05  -7.32160  18.30401
     154.50   3.188928     0.4100E-05  -7.36916  18.42290
     155.50   3.191730     0.6427E-05  -7.17389  17.93473
     156.50   3.194514     0.6464E-05  -7.17138  17.92845
     157.50   3.197281     0.1381E-04  -6.84160  17.10399
     158.50   3.200029     0.1660E-04  -6.76174  16.90436
     159.50   3.202761     0.1949E-04  -6.69203  16.73007
     160.50   3.205475     0.2067E-04  -6.66654  16.66635
     161.50   3.208173     0.2263E-04  -6.62712  16.56781
     162.50   3.210853     0.2573E-04  -6.57144  16.42861
     163.50   3.213518     0.3286E-04  -6.46523  16.16307
     164.50   3.216166     0.4668E-04  -6.31281  15.78201
     165.50   3.218798     0.3460E-04  -6.44288  16.10721
     166.50   3.221414     0.5723E-04  -6.22428  15.56069
     167.20   3.223236     0.4143E-04  -6.36461  15.91153
     167.70   3.224533     0.1540E-03  -5.79433  14.48582
     168.50   3.226600     0.1741E-03  -5.74103  14.35257
     169.50   3.229170     0.2244E-03  -5.63088  14.07719
     170.50   3.231725     0.2401E-03  -5.60159  14.00398
     171.50   3.234264     0.2334E-03  -5.61372  14.03429
     172.50   3.236789     0.3250E-03  -5.46996  13.67490
     173.50   3.239300     0.3906E-03  -5.39016  13.47541
     174.50   3.241796     0.5550E-03  -5.23758  13.09395
     175.50   3.244277     0.7191E-03  -5.12510  12.81275
     176.50   3.246745     0.7124E-03  -5.12915  12.82287
     177.50   3.249198     0.7387E-03  -5.11340  12.78351
     178.50   3.251638     0.1063E-02  -4.95531  12.38826
     179.50   3.254065     0.1179E-02  -4.91050  12.27625
     180.50   3.256477     0.1430E-02  -4.82664  12.06659
     181.50   3.258877     0.1296E-02  -4.86913  12.17282
     182.50   3.261263     0.1783E-02  -4.73078  11.82695
     183.50   3.263636     0.1806E-02  -4.72528  11.81320
     184.50   3.265996     0.1459E-02  -4.81793  12.04483
     185.50   3.268344     0.1943E-02  -4.69333  11.73333
     186.50   3.270679     0.2399E-02  -4.60191  11.50477
     187.50   3.273001     0.2588E-02  -4.56887  11.42218
     188.50   3.275311     0.2852E-02  -4.52681  11.31704
     189.50   3.277609     0.3845E-02  -4.39700  10.99250
     190.50   3.279895     0.3715E-02  -4.41196  11.02990
     191.50   3.282169     0.4373E-02  -4.34109  10.85271
     192.50   3.284431     0.4333E-02  -4.34516  10.86290
     193.50   3.286681     0.2874E-02  -4.52343  11.30857
     194.50   3.288920     0.5660E-02  -4.22908  10.57271
     195.50   3.291147     0.6328E-02  -4.18064  10.45161
     196.70   3.293804     0.8031E-02  -4.07711  10.19277
     197.60   3.295787     0.8197E-02  -4.06826  10.17064
     198.40   3.297542     0.9220E-02  -4.01718  10.04295
     199.50   3.299943     0.9265E-02  -4.01503  10.03757
     200.50   3.302114     0.9310E-02  -4.01295  10.03237
     201.50   3.304275     0.1050E-01  -3.96088   9.90221
     202.50   3.306425     0.8523E-02  -4.05130  10.12826
     203.50   3.308564     0.1179E-01  -3.91022   9.77555
     204.50   3.310693     0.1349E-01  -3.85193   9.62982
     205.50   3.312812     0.1465E-01  -3.81612   9.54031
     206.50   3.314920     0.1467E-01  -3.81535   9.53837
     207.40   3.316809     0.1536E-01  -3.79560   9.48900
     207.80   3.317646     0.3166E-01  -3.48133   8.70332
     208.50   3.319106     0.4025E-01  -3.37716   8.44290
     209.50   3.321184     0.3950E-01  -3.38525   8.46313
     210.50   3.323252     0.4068E-01  -3.37248   8.43120
     211.50   3.325310     0.4801E-01  -3.30057   8.25144
     212.50   3.327359     0.4434E-01  -3.33511   8.33777
     213.50   3.329398     0.5033E-01  -3.28007   8.20017
     214.50   3.331427     0.5722E-01  -3.22433   8.06083
     215.50   3.333447     0.5379E-01  -3.25120   8.12799
     216.50   3.335458     0.5192E-01  -3.26660   8.16649
     217.50   3.337459     0.5314E-01  -3.25644   8.14110
     218.50   3.339452     0.6360E-01  -3.17847   7.94617
     219.50   3.341434     0.6979E-01  -3.13813   7.84532
     220.50   3.343409     0.7130E-01  -3.12880   7.82199
     221.50   3.345374     0.6160E-01  -3.19233   7.98082
     222.50   3.347330     0.7412E-01  -3.11194   7.77984
     223.50   3.349277     0.1042E+00  -2.96402   7.41004
     224.50   3.351216     0.1059E+00  -2.95703   7.39257
     225.50   3.353147     0.9224E-01  -3.01699   7.54247
     226.50   3.355068     0.7293E-01  -3.11899   7.79747
     227.50   3.356982     0.8610E-01  -3.04691   7.61728
     228.50   3.358886     0.1233E+00  -2.89108   7.22770
     229.50   3.360783     0.1107E+00  -2.93790   7.34476
     230.50   3.362671     0.1093E+00  -2.94330   7.35824
     231.50   3.364551     0.1218E+00  -2.89641   7.24104
     232.50   3.366423     0.1216E+00  -2.89705   7.24262
     233.50   3.368287     0.1349E+00  -2.85184   7.12959
     234.50   3.370143     0.9258E-01  -3.01540   7.53849
     235.50   3.371991     0.1338E+00  -2.85530   7.13826
     236.50   3.373831     0.1075E+00  -2.95041   7.37602
     237.50   3.375664     0.1280E+00  -2.87484   7.18711
     238.50   3.377488     0.1041E+00  -2.96459   7.41147
     239.50   3.379306     0.1219E+00  -2.89579   7.23948
     240.50   3.381115     0.1430E+00  -2.82667   7.06668
     241.50   3.382917     0.1255E+00  -2.88328   7.20819
     242.50   3.384712     0.1922E+00  -2.69807   6.74516
     243.50   3.386499     0.2148E+00  -2.64994   6.62485
     244.50   3.388279     0.2657E+00  -2.55751   6.39378
     245.50   3.390052     0.2899E+00  -2.51966   6.29914
     246.50   3.391817     0.2214E+00  -2.63679   6.59197
     247.50   3.393575     0.2127E+00  -2.65415   6.63537
     248.50   3.395326     0.8917E-01  -3.03170   7.57926
     249.50   3.397071     0.1346E+00  -2.85285   7.13212
     250.50   3.398808     0.2308E+00  -2.61874   6.54685
     251.30   3.400192     0.1231E+00  -2.89172   7.22929
     251.80   3.401056     0.8836E-01  -3.03562   7.58906
     252.50   3.402261     0.1015E+00  -2.97540   7.43850
     253.50   3.403978     0.2369E+00  -2.60737   6.51843
     254.50   3.405688     0.2489E+00  -2.58585   6.46462
     255.50   3.407391     0.5726E+00  -2.22402   5.56006
     256.50   3.409087     0.3950E+00  -2.38531   5.96328
     257.50   3.410777     0.5813E+00  -2.21749   5.54373
     258.50   3.412461     0.5329E+00  -2.25523   5.63808
     259.50   3.414137     0.5214E+00  -2.26474   5.66184
     260.50   3.415808     0.5086E+00  -2.27548   5.68870
     261.50   3.417472     0.4550E+00  -2.32391   5.80978
     262.50   3.419129     0.6398E+00  -2.17585   5.43963
     263.50   3.420781     0.1288E+01  -1.87202   4.68006
     264.50   3.422426     0.1547E+01  -1.79239   4.48098
     265.50   3.424065     0.2859E+01  -1.52562   3.81404
     266.50   3.425697     0.1495E+01  -1.80730   4.51825
     267.50   3.427324     0.1606E+01  -1.77624   4.44060
     268.50   3.428944     0.2155E+01  -1.64852   4.12129
     269.50   3.430559     0.1249E+01  -1.88521   4.71302
     270.50   3.432167     0.1893E+01  -1.70468   4.26171
     271.50   3.433770     0.1252E+01  -1.88432   4.71080
     272.50   3.435366     0.7376E+00  -2.11410   5.28525
     273.50   3.436957     0.1079E+01  -1.94900   4.87250
     274.50   3.438542     0.7975E+00  -2.08017   5.20043
     275.50   3.440122     0.1096E+01  -1.94214   4.85535
     276.50   3.441695     0.1512E+01  -1.80244   4.50610
     277.50   3.443263     0.1644E+01  -1.76589   4.41473
     278.50   3.444825     0.9876E+00  -1.98734   4.96834
     279.50   3.446382     0.4977E+00  -2.28490   5.71225
     280.50   3.447933     0.6044E+00  -2.20059   5.50147
     281.50   3.449478     0.1459E+01  -1.81779   4.54449
     282.50   3.451018     0.1905E+01  -1.70198   4.25494
     283.50   3.452553     0.1524E+01  -1.79882   4.49705
     284.50   3.454082     0.8645E+00  -2.04511   5.11277
     285.50   3.455606     0.4110E+00  -2.36807   5.92018
     286.50   3.457125     0.1269E+01  -1.87855   4.69638
     287.50   3.458638     0.2352E+01  -1.61041   4.02601
     288.50   3.460146     0.2548E+01  -1.57568   3.93920
     289.50   3.461648     0.3852E+01  -1.39622   3.49054
     291.00   3.463893     0.6342E+01  -1.17970   2.94924
     293.00   3.466868     0.5637E+01  -1.23082   3.07704
     295.00   3.469822     0.5169E+01  -1.26852   3.17130
     297.00   3.472756     0.5366E+01  -1.25225   3.13063
     299.00   3.475671     0.5648E+01  -1.23000   3.07500
     301.00   3.478566     0.5328E+01  -1.25531   3.13828
     303.00   3.481443     0.6482E+01  -1.17019   2.92547
     305.00   3.484300     0.6683E+01  -1.15691   2.89226
     307.00   3.487138     0.7868E+01  -1.08605   2.71512
     309.00   3.489959     0.6902E+01  -1.14293   2.85733
     311.00   3.492760     0.9653E+01  -0.99725   2.49314
     313.00   3.495544     0.8259E+01  -1.06497   2.66243
     315.00   3.498311     0.9024E+01  -1.02649   2.56622
     317.00   3.501059     0.1070E+02  -0.95236   2.38091
     319.00   3.503791     0.8606E+01  -1.04710   2.61774
     321.00   3.506505     0.9479E+01  -1.00514   2.51284
     323.00   3.509202     0.8014E+01  -1.07805   2.69513
     325.00   3.511883     0.1289E+02  -0.87170   2.17925
     327.00   3.514548     0.1568E+02  -0.78660   1.96649
     329.00   3.517196     0.1577E+02  -0.78414   1.96036
     331.00   3.519828     0.1378E+02  -0.84264   2.10660
     333.00   3.522444     0.1466E+02  -0.81575   2.03938
     335.00   3.525045     0.1404E+02  -0.83441   2.08603
     337.00   3.527630     0.9246E+01  -1.01594   2.53985
     339.00   3.530200     0.1107E+02  -0.93778   2.34446
     341.00   3.532754     0.1164E+02  -0.91609   2.29023
     343.00   3.535294     0.1273E+02  -0.87691   2.19226
     345.00   3.537819     0.1415E+02  -0.83111   2.07777
     347.00   3.540329     0.1507E+02  -0.80365   2.00913
     349.00   3.542825     0.1790E+02  -0.72908   1.82269
     351.00   3.545307     0.1955E+02  -0.69067   1.72669
     353.00   3.547775     0.1647E+02  -0.76518   1.91294
     355.00   3.550228     0.1890E+02  -0.70544   1.76361
     357.00   3.552668     0.1184E+02  -0.90863   2.27156
     359.00   3.555094     0.1307E+02  -0.86568   2.16420
     361.00   3.557507     0.1826E+02  -0.72045   1.80113
     363.00   3.559907     0.1988E+02  -0.68339   1.70848
     364.00   3.561101     0.2026E+02  -0.67531   1.68828
     365.00   3.562293     0.2259E+02  -0.62790   1.56974
     367.00   3.564666     0.2570E+02  -0.57195   1.42988
     369.00   3.567026     0.2128E+02  -0.65398   1.63495
     371.00   3.569374     0.2150E+02  -0.64951   1.62377
     373.00   3.571709     0.1109E+02  -0.93704   2.34261
     375.00   3.574031     0.1324E+02  -0.85994   2.14986
     377.00   3.576341     0.2070E+02  -0.66590   1.66474
     379.00   3.578639     0.2136E+02  -0.65231   1.63077
     381.00   3.580925     0.1833E+02  -0.71879   1.79698
     383.00   3.583199     0.8721E+01  -1.04131   2.60327
     385.00   3.585461     0.1250E+02  -0.88494   2.21234
     387.00   3.587711     0.1260E+02  -0.88155   2.20387
     389.00   3.589950     0.1923E+02  -0.69781   1.74454
     391.00   3.592177     0.2543E+02  -0.57659   1.44148
     393.00   3.594393     0.1097E+02  -0.94179   2.35446
     395.00   3.596597     0.2131E+02  -0.65331   1.63326
     397.00   3.598790     0.1448E+02  -0.82112   2.05281
     399.00   3.600973     0.3760E+02  -0.40675   1.01689
     401.00   3.603144     0.4325E+02  -0.34596   0.86489
     403.00   3.605305     0.4183E+02  -0.36041   0.90102
     405.00   3.607455     0.3967E+02  -0.38341   0.95853
     407.00   3.609594     0.3599E+02  -0.42570   1.06424
     409.00   3.611723     0.5029E+02  -0.28046   0.70114
     411.00   3.613842     0.4632E+02  -0.31612   0.79030
     413.00   3.615950     0.4302E+02  -0.34824   0.87061
     415.00   3.618048     0.4129E+02  -0.36606   0.91516
     417.00   3.620136     0.4264E+02  -0.35210   0.88024
     419.00   3.622214     0.4237E+02  -0.35489   0.88722
     421.00   3.624282     0.4276E+02  -0.35091   0.87727
     423.00   3.626340     0.3757E+02  -0.40708   1.01770
     425.00   3.628389     0.4486E+02  -0.33007   0.82517
     427.00   3.630428     0.4196E+02  -0.35901   0.89753
     429.00   3.632457     0.3957E+02  -0.38449   0.96122
     431.00   3.634477     0.3536E+02  -0.43336   1.08340
     433.00   3.636488     0.5548E+02  -0.23774   0.59435
     435.00   3.638489     0.5762E+02  -0.22129   0.55323
     437.00   3.640481     0.6255E+02  -0.18569   0.46422
     439.00   3.642465     0.5258E+02  -0.26110   0.65276
     441.00   3.644439     0.5570E+02  -0.23601   0.59003
     443.00   3.646404     0.6114E+02  -0.19560   0.48899
     445.00   3.648360     0.6289E+02  -0.18329   0.45822
     447.00   3.650307     0.6931E+02  -0.14112   0.35280
     449.00   3.652246     0.7239E+02  -0.12221   0.30551
     451.00   3.654176     0.8653E+02  -0.04474   0.11185
     453.00   3.656098     0.7168E+02  -0.12648   0.31621
     455.00   3.658011     0.7708E+02  -0.09495   0.23737
     457.00   3.659916     0.8581E+02  -0.04837   0.12093
     459.00   3.661813     0.7986E+02  -0.07956   0.19889
     461.00   3.663701     0.8258E+02  -0.06504   0.16259
     463.00   3.665581     0.7954E+02  -0.08132   0.20330
     465.00   3.667453     0.8084E+02  -0.07426   0.18566
     467.00   3.669317     0.8652E+02  -0.04476   0.11191
     469.00   3.671173     0.8452E+02  -0.05492   0.13731
     471.00   3.673021     0.8167E+02  -0.06984   0.17459
     473.00   3.674861     0.8465E+02  -0.05427   0.13569
     475.00   3.676694     0.8715E+02  -0.04163   0.10406
     477.00   3.678518     0.8382E+02  -0.05854   0.14634
     479.00   3.680336     0.8561E+02  -0.04936   0.12341
     481.00   3.682145     0.8670E+02  -0.04386   0.10965
     483.00   3.683947     0.9117E+02  -0.02204   0.05511
     485.00   3.685742     0.8695E+02  -0.04262   0.10656
     487.00   3.687529     0.7996E+02  -0.07903   0.19756
     489.00   3.689309     0.8867E+02  -0.03414   0.08535
     491.00   3.691082     0.8935E+02  -0.03082   0.07706
     493.00   3.692847     0.8702E+02  -0.04228   0.10571
     495.00   3.694605     0.9044E+02  -0.02551   0.06378
     497.00   3.696356     0.8520E+02  -0.05147   0.12868
     499.00   3.698101     0.7831E+02  -0.08807   0.22018
     501.00   3.699838     0.7202E+02  -0.12442   0.31106
     503.00   3.701568     0.7869E+02  -0.08595   0.21488
     505.00   3.703291     0.7829E+02  -0.08819   0.22047
     507.00   3.705008     0.8210E+02  -0.06754   0.16884
     509.00   3.706718     0.7648E+02  -0.09835   0.24587
     511.00   3.708421     0.7937E+02  -0.08221   0.20554
     513.00   3.710117     0.7601E+02  -0.10102   0.25254
     515.00   3.711807     0.7281E+02  -0.11973   0.29932
     517.00   3.713490     0.6188E+02  -0.19033   0.47582
     519.00   3.715167     0.6618E+02  -0.16119   0.40297
     521.00   3.716838     0.7553E+02  -0.10375   0.25939
     523.00   3.718502     0.8793E+02  -0.03775   0.09438
     525.00   3.720159     0.9415E+02  -0.00806   0.02015
     527.00   3.721811     0.7921E+02  -0.08311   0.20779
     529.00   3.723456     0.9734E+02   0.00639  -0.01597
     531.00   3.725095     0.1062E+03   0.04424  -0.11061
     533.00   3.726727     0.8881E+02  -0.03341   0.08353
     535.00   3.728354     0.1013E+03   0.02374  -0.05936
     537.00   3.729974     0.9998E+02   0.01801  -0.04503
     539.00   3.731589     0.9716E+02   0.00558  -0.01396
     541.00   3.733197     0.9616E+02   0.00111  -0.00279
     543.00   3.734800     0.9782E+02   0.00853  -0.02133
     545.00   3.736397     0.9884E+02   0.01303  -0.03257
     547.00   3.737987     0.9665E+02   0.00331  -0.00827
     549.00   3.739572     0.9780E+02   0.00843  -0.02106
     551.00   3.741152     0.9592E+02   0.00000   0.00000
     553.00   3.742725     0.1021E+03   0.02697  -0.06743
     555.00   3.744293     0.1047E+03   0.03799  -0.09497
     557.00   3.745855     0.1026E+03   0.02912  -0.07279
     559.00   3.747412     0.9864E+02   0.01216  -0.03039
     561.00   3.748963     0.1025E+03   0.02869  -0.07173
     563.00   3.750508     0.1021E+03   0.02702  -0.06756
