age =   11.0    [Fe/H] =   -0.25

wavele(nm) log wave(A)   Hlam       log(Hlam/Hlam(V))  Hlam(mag(V)) 
      89.50   2.951823     0.5484E-13 -15.52916  38.82290
      90.50   2.956649     0.1565E-12 -15.07379  37.68448
      91.50   2.961421     0.2457E-12 -14.87781  37.19453
      92.50   2.966142     0.9150E-10 -12.30686  30.76716
      93.50   2.970812     0.1264E-09 -12.16648  30.41620
      94.50   2.975432     0.1798E-09 -12.01340  30.03349
      95.50   2.980003     0.2676E-09 -11.84078  29.60194
      96.50   2.984527     0.3827E-09 -11.68542  29.21356
      97.50   2.989005     0.5026E-09 -11.56701  28.91752
      98.50   2.993436     0.7050E-09 -11.42007  28.55017
      99.50   2.997823     0.9491E-09 -11.29095  28.22738
     100.50   3.002166     0.1381E-08 -11.12819  27.82046
     101.50   3.006466     0.1847E-08 -11.00180  27.50449
     102.50   3.010724     0.2092E-08 -10.94775  27.36938
     103.50   3.014940     0.3385E-08 -10.73868  26.84669
     104.50   3.019116     0.4609E-08 -10.60463  26.51158
     105.50   3.023252     0.5859E-08 -10.50042  26.25105
     106.50   3.027350     0.7761E-08 -10.37837  25.94593
     107.50   3.031409     0.1036E-07 -10.25294  25.63235
     108.50   3.035430     0.1379E-07 -10.12870  25.32176
     109.50   3.039414     0.1725E-07 -10.03146  25.07865
     110.50   3.043362     0.1183E-06  -9.19543  22.98856
     111.50   3.047275     0.2224E-06  -8.92119  22.30297
     112.50   3.051152     0.3391E-06  -8.73798  21.84496
     113.50   3.054996     0.5132E-06  -8.55802  21.39506
     114.50   3.058805     0.6779E-06  -8.43708  21.09271
     115.50   3.062582     0.7730E-06  -8.38007  20.95018
     116.50   3.066326     0.1025E-05  -8.25764  20.64411
     117.50   3.070038     0.1293E-05  -8.15679  20.39199
     118.50   3.073718     0.1323E-05  -8.14655  20.36638
     119.50   3.077368     0.9546E-06  -8.28845  20.72113
     120.50   3.080987     0.8711E-06  -8.32822  20.82056
     121.50   3.084576     0.1663E-06  -9.04744  22.61859
     122.50   3.088136     0.1140E-05  -8.21133  20.52832
     123.50   3.091667     0.2924E-05  -7.80228  19.50570
     124.50   3.095169     0.4971E-05  -7.57187  18.92968
     125.50   3.098644     0.6692E-05  -7.44270  18.60675
     126.50   3.102091     0.7383E-05  -7.40005  18.50013
     127.50   3.105510     0.9639E-05  -7.28426  18.21066
     128.50   3.108903     0.1184E-04  -7.19508  17.98771
     129.50   3.112270     0.1434E-04  -7.11160  17.77900
     130.50   3.115611     0.1539E-04  -7.08094  17.70235
     131.50   3.118926     0.1961E-04  -6.97590  17.43975
     132.50   3.122216     0.2129E-04  -6.94011  17.35027
     133.50   3.125481     0.2376E-04  -6.89242  17.23106
     134.50   3.128722     0.2802E-04  -6.82077  17.05191
     135.50   3.131939     0.3195E-04  -6.76376  16.90939
     136.50   3.135133     0.3491E-04  -6.72529  16.81322
     137.50   3.138303     0.3752E-04  -6.69405  16.73513
     138.50   3.141450     0.4097E-04  -6.65577  16.63942
     139.50   3.144574     0.4631E-04  -6.60260  16.50649
     140.50   3.147676     0.5492E-04  -6.52853  16.32133
     141.50   3.150756     0.6200E-04  -6.47585  16.18962
     142.50   3.153815     0.6987E-04  -6.42396  16.05989
     143.50   3.156852     0.8120E-04  -6.35871  15.89678
     144.20   3.158965     0.1049E-03  -6.24761  15.61901
     144.70   3.160469     0.9429E-04  -6.29379  15.73446
     145.50   3.162863     0.1112E-03  -6.22213  15.55532
     146.50   3.165838     0.1367E-03  -6.13245  15.33112
     147.50   3.168792     0.1544E-03  -6.07974  15.19935
     148.50   3.171726     0.1666E-03  -6.04663  15.11657
     149.50   3.174641     0.2166E-03  -5.93271  14.83177
     150.50   3.177536     0.2598E-03  -5.85366  14.63416
     151.20   3.179552     0.2034E-03  -5.95995  14.89986
     151.70   3.180986     0.2526E-03  -5.86593  14.66482
     152.50   3.183270     0.5151E-03  -5.55636  13.89089
     153.50   3.186108     0.7781E-03  -5.37726  13.44314
     154.50   3.188928     0.6696E-03  -5.44245  13.60613
     155.50   3.191730     0.1005E-02  -5.26630  13.16576
     156.50   3.194514     0.9554E-03  -5.28808  13.22019
     157.50   3.197281     0.1607E-02  -5.06238  12.65596
     158.50   3.200029     0.1925E-02  -4.98380  12.45950
     159.50   3.202761     0.2231E-02  -4.91978  12.29946
     160.50   3.205475     0.2377E-02  -4.89226  12.23065
     161.50   3.208173     0.2666E-02  -4.84245  12.10612
     162.50   3.210853     0.2906E-02  -4.80495  12.01237
     163.50   3.213518     0.3434E-02  -4.73251  11.83126
     164.50   3.216166     0.4681E-02  -4.59793  11.49483
     165.50   3.218798     0.3063E-02  -4.78212  11.95529
     166.50   3.221414     0.5334E-02  -4.54118  11.35296
     167.20   3.223236     0.3873E-02  -4.68021  11.70053
     167.70   3.224533     0.1495E-01  -4.09368  10.23421
     168.50   3.226600     0.1560E-01  -4.07512  10.18780
     169.50   3.229170     0.1788E-01  -4.01580  10.03950
     170.50   3.231725     0.2091E-01  -3.94785   9.86962
     171.50   3.234264     0.2701E-01  -3.83682   9.59204
     172.50   3.236789     0.3322E-01  -3.74683   9.36708
     173.50   3.239300     0.4375E-01  -3.62726   9.06814
     174.50   3.241796     0.5462E-01  -3.53090   8.82724
     175.50   3.244277     0.8070E-01  -3.36138   8.40344
     176.50   3.246745     0.6323E-01  -3.46736   8.66840
     177.50   3.249198     0.7793E-01  -3.37656   8.44139
     178.50   3.251638     0.1026E+00  -3.25699   8.14247
     179.50   3.254065     0.1460E+00  -3.10404   7.76010
     180.50   3.256477     0.1452E+00  -3.10626   7.76564
     181.50   3.258877     0.1242E+00  -3.17425   7.93562
     182.50   3.261263     0.1546E+00  -3.07912   7.69779
     183.50   3.263636     0.1590E+00  -3.06678   7.66694
     184.50   3.265996     0.9392E-01  -3.29551   8.23876
     185.50   3.268344     0.1825E+00  -3.00700   7.51750
     186.50   3.270679     0.2410E+00  -2.88629   7.21572
     187.50   3.273001     0.2457E+00  -2.87796   7.19489
     188.50   3.275311     0.2611E+00  -2.85147   7.12867
     189.50   3.277609     0.3489E+00  -2.72558   6.81395
     190.50   3.279895     0.3269E+00  -2.75391   6.88476
     191.50   3.282169     0.3700E+00  -2.70007   6.75018
     192.50   3.284431     0.3116E+00  -2.77470   6.93676
     193.50   3.286681     0.1624E+00  -3.05773   7.64432
     194.50   3.288920     0.4514E+00  -2.61367   6.53419
     195.50   3.291147     0.4740E+00  -2.59248   6.48121
     196.70   3.293804     0.6331E+00  -2.46679   6.16699
     197.60   3.295787     0.5349E+00  -2.54000   6.34999
     198.40   3.297542     0.6892E+00  -2.42990   6.07475
     199.50   3.299943     0.7520E+00  -2.39206   5.98016
     200.50   3.302114     0.6882E+00  -2.43058   6.07646
     201.50   3.304275     0.7555E+00  -2.39005   5.97513
     202.50   3.306425     0.5435E+00  -2.53310   6.33275
     203.50   3.308564     0.8527E+00  -2.33747   5.84366
     204.50   3.310693     0.1001E+01  -2.26796   5.66989
     205.50   3.312812     0.9599E+00  -2.28606   5.71515
     206.50   3.314920     0.9205E+00  -2.30425   5.76062
     207.40   3.316809     0.1053E+01  -2.24580   5.61450
     207.80   3.317646     0.2707E+01  -1.83576   4.58941
     208.50   3.319106     0.3514E+01  -1.72243   4.30607
     209.50   3.321184     0.3167E+01  -1.76761   4.41903
     210.50   3.323252     0.3004E+01  -1.79052   4.47629
     211.50   3.325310     0.3579E+01  -1.71448   4.28619
     212.50   3.327359     0.2997E+01  -1.79155   4.47887
     213.50   3.329398     0.2887E+01  -1.80790   4.51975
     214.50   3.331427     0.3940E+01  -1.67281   4.18203
     215.50   3.333447     0.3823E+01  -1.68592   4.21479
     216.50   3.335458     0.3152E+01  -1.76967   4.42417
     217.50   3.337459     0.3208E+01  -1.76199   4.40496
     218.50   3.339452     0.4457E+01  -1.61920   4.04800
     219.50   3.341434     0.4337E+01  -1.63106   4.07764
     220.50   3.343409     0.4204E+01  -1.64459   4.11148
     221.50   3.345374     0.3032E+01  -1.78658   4.46644
     222.50   3.347330     0.3860E+01  -1.68171   4.20429
     223.50   3.349277     0.5431E+01  -1.53343   3.83357
     224.50   3.351216     0.5127E+01  -1.55844   3.89611
     225.50   3.353147     0.3606E+01  -1.71119   4.27798
     226.50   3.355068     0.3193E+01  -1.76414   4.41035
     227.50   3.356982     0.3509E+01  -1.72314   4.30786
     228.50   3.358886     0.5303E+01  -1.54373   3.85933
     229.50   3.360783     0.4161E+01  -1.64905   4.12261
     230.50   3.362671     0.5414E+01  -1.53477   3.83693
     231.50   3.364551     0.4423E+01  -1.62256   4.05641
     232.50   3.366423     0.3595E+01  -1.71259   4.28148
     233.50   3.368287     0.2930E+01  -1.80148   4.50370
     234.50   3.370143     0.1730E+01  -2.03025   5.07562
     235.50   3.371991     0.4114E+01  -1.65401   4.13503
     236.50   3.373831     0.2024E+01  -1.96215   4.90538
     237.50   3.375664     0.2907E+01  -1.80476   4.51191
     238.50   3.377488     0.1440E+01  -2.10981   5.27454
     239.50   3.379306     0.1973E+01  -1.97308   4.93269
     240.50   3.381115     0.2010E+01  -1.96504   4.91260
     241.50   3.382917     0.2559E+01  -1.86018   4.65045
     242.50   3.384712     0.5180E+01  -1.55395   3.88487
     243.50   3.386499     0.5214E+01  -1.55113   3.87783
     244.50   3.388279     0.6464E+01  -1.45778   3.64444
     245.50   3.390052     0.6957E+01  -1.42584   3.56459
     246.50   3.391817     0.5754E+01  -1.50834   3.77084
     247.50   3.393575     0.4875E+01  -1.58031   3.95077
     248.50   3.395326     0.2300E+01  -1.90664   4.76660
     249.50   3.397071     0.3344E+01  -1.74404   4.36010
     250.50   3.398808     0.5796E+01  -1.50511   3.76279
     251.30   3.400192     0.1944E+01  -1.97960   4.94900
     251.80   3.401056     0.1287E+01  -2.15881   5.39703
     252.50   3.402261     0.1604E+01  -2.06297   5.15743
     253.50   3.403978     0.3553E+01  -1.71771   4.29427
     254.50   3.405688     0.3818E+01  -1.68643   4.21609
     255.50   3.407391     0.7954E+01  -1.36767   3.41917
     256.50   3.409087     0.5555E+01  -1.52360   3.80899
     257.50   3.410777     0.7505E+01  -1.39294   3.48236
     258.50   3.412461     0.6440E+01  -1.45937   3.64843
     259.50   3.414137     0.5626E+01  -1.51804   3.79511
     260.50   3.415808     0.4646E+01  -1.60123   4.00309
     261.50   3.417472     0.4064E+01  -1.65932   4.14829
     262.50   3.419129     0.6031E+01  -1.48792   3.71980
     263.50   3.420781     0.1171E+02  -1.19953   2.99883
     264.50   3.422426     0.1621E+02  -1.05861   2.64653
     265.50   3.424065     0.2312E+02  -0.90423   2.26059
     266.50   3.425697     0.1442E+02  -1.10929   2.77323
     267.50   3.427324     0.1650E+02  -1.05073   2.62683
     268.50   3.428944     0.1948E+02  -0.97861   2.44654
     269.50   3.430559     0.1346E+02  -1.13911   2.84779
     270.50   3.432167     0.1704E+02  -1.03691   2.59227
     271.50   3.433770     0.1178E+02  -1.19713   2.99282
     272.50   3.435366     0.8928E+01  -1.31752   3.29381
     273.50   3.436957     0.1191E+02  -1.19240   2.98100
     274.50   3.438542     0.6179E+01  -1.47735   3.69338
     275.50   3.440122     0.9117E+01  -1.30844   3.27109
     276.50   3.441695     0.1255E+02  -1.16966   2.92415
     277.50   3.443263     0.1335E+02  -1.14285   2.85713
     278.50   3.444825     0.7139E+01  -1.41461   3.53653
     279.50   3.446382     0.2736E+01  -1.83118   4.57794
     280.50   3.447933     0.3459E+01  -1.72931   4.32329
     281.50   3.449478     0.1140E+02  -1.21140   3.02850
     282.50   3.451018     0.1749E+02  -1.02541   2.56353
     283.50   3.452553     0.1612E+02  -1.06093   2.65231
     284.50   3.454082     0.1063E+02  -1.24189   3.10473
     285.50   3.455606     0.5190E+01  -1.55309   3.88272
     286.50   3.457125     0.1572E+02  -1.07193   2.67983
     287.50   3.458638     0.2231E+02  -0.91984   2.29960
     288.50   3.460146     0.2011E+02  -0.96477   2.41191
     289.50   3.461648     0.2532E+02  -0.86485   2.16212
     291.00   3.463893     0.3522E+02  -0.72153   1.80381
     293.00   3.466868     0.3187E+02  -0.76488   1.91220
     295.00   3.469822     0.3047E+02  -0.78438   1.96096
     297.00   3.472756     0.3206E+02  -0.76226   1.90564
     299.00   3.475671     0.3341E+02  -0.74436   1.86089
     301.00   3.478566     0.3380E+02  -0.73938   1.84846
     303.00   3.481443     0.3623E+02  -0.70926   1.77314
     305.00   3.484300     0.3795E+02  -0.68906   1.72264
     307.00   3.487138     0.3874E+02  -0.68008   1.70019
     309.00   3.489959     0.3584E+02  -0.71389   1.78473
     311.00   3.492760     0.4166E+02  -0.64859   1.62148
     313.00   3.495544     0.3817E+02  -0.68655   1.71638
     315.00   3.498311     0.3759E+02  -0.69319   1.73296
     317.00   3.501059     0.4253E+02  -0.63957   1.59893
     319.00   3.503791     0.3705E+02  -0.69947   1.74866
     321.00   3.506505     0.4129E+02  -0.65240   1.63100
     323.00   3.509202     0.3545E+02  -0.71867   1.79666
     325.00   3.511883     0.4982E+02  -0.57084   1.42709
     327.00   3.514548     0.5787E+02  -0.50582   1.26454
     329.00   3.517196     0.5656E+02  -0.51580   1.28949
     331.00   3.519828     0.5268E+02  -0.54663   1.36657
     333.00   3.522444     0.5433E+02  -0.53324   1.33309
     335.00   3.525045     0.5262E+02  -0.54716   1.36789
     337.00   3.527630     0.3851E+02  -0.68270   1.70675
     339.00   3.530200     0.4525E+02  -0.61263   1.53157
     341.00   3.532754     0.4709E+02  -0.59539   1.48847
     343.00   3.535294     0.5091E+02  -0.56147   1.40367
     345.00   3.537819     0.5482E+02  -0.52934   1.32336
     347.00   3.540329     0.5709E+02  -0.51173   1.27932
     349.00   3.542825     0.6350E+02  -0.46547   1.16368
     351.00   3.545307     0.6740E+02  -0.43964   1.09910
     353.00   3.547775     0.6074E+02  -0.48482   1.21204
     355.00   3.550228     0.6926E+02  -0.42776   1.06941
     357.00   3.552668     0.5133E+02  -0.55789   1.39474
     359.00   3.555094     0.5239E+02  -0.54899   1.37249
     361.00   3.557507     0.6413E+02  -0.46121   1.15303
     363.00   3.559907     0.6588E+02  -0.44952   1.12379
     364.00   3.561101     0.6750E+02  -0.43900   1.09750
     365.00   3.562293     0.7301E+02  -0.40487   1.01216
     367.00   3.564666     0.7746E+02  -0.37918   0.94795
     369.00   3.567026     0.7018E+02  -0.42209   1.05521
     371.00   3.569374     0.7413E+02  -0.39826   0.99566
     373.00   3.571709     0.5015E+02  -0.56804   1.42010
     375.00   3.574031     0.5716E+02  -0.51120   1.27799
     377.00   3.576341     0.7350E+02  -0.40198   1.00494
     379.00   3.578639     0.7585E+02  -0.38829   0.97073
     381.00   3.580925     0.7246E+02  -0.40816   1.02039
     383.00   3.583199     0.4193E+02  -0.64573   1.61432
     385.00   3.585461     0.5865E+02  -0.49997   1.24993
     387.00   3.587711     0.5767E+02  -0.50732   1.26829
     389.00   3.589950     0.6930E+02  -0.42752   1.06880
     391.00   3.592177     0.8316E+02  -0.34834   0.87086
     393.00   3.594393     0.4076E+02  -0.65799   1.64498
     395.00   3.596597     0.7289E+02  -0.40563   1.01407
     397.00   3.598790     0.5021E+02  -0.56750   1.41875
     399.00   3.600973     0.1064E+03  -0.24133   0.60332
     401.00   3.603144     0.1165E+03  -0.20177   0.50444
     403.00   3.605305     0.1152E+03  -0.20677   0.51692
     405.00   3.607455     0.1108E+03  -0.22372   0.55931
     407.00   3.609594     0.1052E+03  -0.24610   0.61526
     409.00   3.611723     0.1275E+03  -0.16281   0.40703
     411.00   3.613842     0.1198E+03  -0.18969   0.47423
     413.00   3.615950     0.1182E+03  -0.19566   0.48915
     415.00   3.618048     0.1158E+03  -0.20458   0.51145
     417.00   3.620136     0.1178E+03  -0.19697   0.49242
     419.00   3.622214     0.1145E+03  -0.20947   0.52368
     421.00   3.624282     0.1156E+03  -0.20530   0.51324
     423.00   3.626340     0.1098E+03  -0.22770   0.56925
     425.00   3.628389     0.1156E+03  -0.20524   0.51311
     427.00   3.630428     0.1090E+03  -0.23079   0.57699
     429.00   3.632457     0.1015E+03  -0.26199   0.65498
     431.00   3.634477     0.8684E+02  -0.32955   0.82387
     433.00   3.636488     0.1281E+03  -0.16062   0.40154
     435.00   3.638489     0.1264E+03  -0.16646   0.41616
     437.00   3.640481     0.1372E+03  -0.13094   0.32736
     439.00   3.642465     0.1229E+03  -0.17875   0.44686
     441.00   3.644439     0.1312E+03  -0.15035   0.37589
     443.00   3.646404     0.1425E+03  -0.11439   0.28598
     445.00   3.648360     0.1431E+03  -0.11269   0.28171
     447.00   3.650307     0.1525E+03  -0.08489   0.21223
     449.00   3.652246     0.1568E+03  -0.07302   0.18255
     451.00   3.654176     0.1762E+03  -0.02225   0.05562
     453.00   3.656098     0.1560E+03  -0.07514   0.18786
     455.00   3.658011     0.1634E+03  -0.05501   0.13753
     457.00   3.659916     0.1761E+03  -0.02264   0.05659
     459.00   3.661813     0.1659E+03  -0.04841   0.12103
     461.00   3.663701     0.1715E+03  -0.03394   0.08486
     463.00   3.665581     0.1680E+03  -0.04306   0.10765
     465.00   3.667453     0.1700E+03  -0.03785   0.09463
     467.00   3.669317     0.1769E+03  -0.02055   0.05136
     469.00   3.671173     0.1740E+03  -0.02780   0.06950
     471.00   3.673021     0.1702E+03  -0.03726   0.09314
     473.00   3.674861     0.1755E+03  -0.02407   0.06016
     475.00   3.676694     0.1795E+03  -0.01425   0.03562
     477.00   3.678518     0.1759E+03  -0.02312   0.05781
     479.00   3.680336     0.1770E+03  -0.02027   0.05068
     481.00   3.682145     0.1777E+03  -0.01869   0.04673
     483.00   3.683947     0.1823E+03  -0.00740   0.01850
     485.00   3.685742     0.1748E+03  -0.02571   0.06428
     487.00   3.687529     0.1609E+03  -0.06178   0.15445
     489.00   3.689309     0.1779E+03  -0.01817   0.04541
     491.00   3.691082     0.1790E+03  -0.01535   0.03839
     493.00   3.692847     0.1762E+03  -0.02226   0.05565
     495.00   3.694605     0.1827E+03  -0.00660   0.01650
     497.00   3.696356     0.1773E+03  -0.01949   0.04871
     499.00   3.698101     0.1660E+03  -0.04827   0.12068
     501.00   3.699838     0.1575E+03  -0.07098   0.17744
     503.00   3.701568     0.1677E+03  -0.04380   0.10950
     505.00   3.703291     0.1675E+03  -0.04425   0.11062
     507.00   3.705008     0.1746E+03  -0.02631   0.06578
     509.00   3.706718     0.1662E+03  -0.04753   0.11882
     511.00   3.708421     0.1699E+03  -0.03807   0.09516
     513.00   3.710117     0.1655E+03  -0.04956   0.12391
     515.00   3.711807     0.1599E+03  -0.06454   0.16136
     517.00   3.713490     0.1453E+03  -0.10607   0.26518
     519.00   3.715167     0.1508E+03  -0.08981   0.22452
     521.00   3.716838     0.1624E+03  -0.05763   0.14408
     523.00   3.718502     0.1760E+03  -0.02273   0.05681
     525.00   3.720159     0.1832E+03  -0.00546   0.01364
     527.00   3.721811     0.1626E+03  -0.05722   0.14305
     529.00   3.723456     0.1864E+03   0.00223  -0.00558
     531.00   3.725095     0.1968E+03   0.02570  -0.06425
     533.00   3.726727     0.1754E+03  -0.02418   0.06044
     535.00   3.728354     0.1916E+03   0.01421  -0.03552
     537.00   3.729974     0.1898E+03   0.01002  -0.02505
     539.00   3.731589     0.1865E+03   0.00245  -0.00612
     541.00   3.733197     0.1836E+03  -0.00439   0.01099
     543.00   3.734800     0.1864E+03   0.00227  -0.00567
     545.00   3.736397     0.1899E+03   0.01030  -0.02575
     547.00   3.737987     0.1859E+03   0.00092  -0.00229
     549.00   3.739572     0.1879E+03   0.00571  -0.01428
     551.00   3.741152     0.1855E+03   0.00000   0.00000
     553.00   3.742725     0.1917E+03   0.01445  -0.03612
     555.00   3.744293     0.1949E+03   0.02165  -0.05412
     557.00   3.745855     0.1904E+03   0.01145  -0.02864
     559.00   3.747412     0.1861E+03   0.00143  -0.00357
     561.00   3.748963     0.1915E+03   0.01392  -0.03479
