age =   10.0    [Fe/H] =    0.25

wavele(nm) log wave(A)   Hlam       log(Hlam/Hlam(V))  Hlam(mag(V)) 
      90.50   2.956649     0.7017E-14 -16.31942  40.79856
      91.50   2.961421     0.2456E-12 -14.77529  36.93823
      92.50   2.966142     0.2977E-11 -13.69175  34.22939
      93.50   2.970812     0.4219E-11 -13.54043  33.85108
      94.50   2.975432     0.6352E-11 -13.36268  33.40669
      95.50   2.980003     0.9684E-11 -13.17955  32.94887
      96.50   2.984527     0.1475E-10 -12.99673  32.49181
      97.50   2.989005     0.2023E-10 -12.85958  32.14894
      98.50   2.993436     0.2888E-10 -12.70500  31.76250
      99.50   2.997823     0.3997E-10 -12.56391  31.40978
     100.50   3.002166     0.6072E-10 -12.38223  30.95559
     101.50   3.006466     0.8492E-10 -12.23661  30.59152
     102.50   3.010724     0.1018E-09 -12.15777  30.39444
     103.50   3.014940     0.1663E-09 -11.94471  29.86176
     104.50   3.019116     0.2334E-09 -11.79744  29.49360
     105.50   3.023252     0.3004E-09 -11.68791  29.21977
     106.50   3.027350     0.4163E-09 -11.54619  28.86548
     107.50   3.031409     0.5695E-09 -11.41007  28.52518
     108.50   3.035430     0.7710E-09 -11.27853  28.19633
     109.50   3.039414     0.9687E-09 -11.17939  27.94848
     110.50   3.043362     0.1926E-08 -10.88083  27.20208
     111.50   3.047275     0.2812E-08 -10.71663  26.79158
     112.50   3.051152     0.3977E-08 -10.56604  26.41511
     113.50   3.054996     0.5763E-08 -10.40495  26.01237
     114.50   3.058805     0.7724E-08 -10.27777  25.69444
     115.50   3.062582     0.9515E-08 -10.18719  25.46798
     116.50   3.066326     0.1288E-07 -10.05579  25.13947
     117.50   3.070038     0.1678E-07  -9.94074  24.85184
     118.50   3.073718     0.1991E-07  -9.86662  24.66655
     119.50   3.077368     0.2074E-07  -9.84885  24.62213
     120.50   3.080987     0.2527E-07  -9.76300  24.40751
     121.50   3.084576     0.1261E-07 -10.06495  25.16236
     122.50   3.088136     0.3700E-07  -9.59735  23.99336
     123.50   3.091667     0.5676E-07  -9.41155  23.52887
     124.50   3.095169     0.7180E-07  -9.30945  23.27364
     125.50   3.098644     0.8577E-07  -9.23226  23.08064
     126.50   3.102091     0.9882E-07  -9.17075  22.92687
     127.50   3.105510     0.1202E-06  -9.08567  22.71418
     128.50   3.108903     0.1358E-06  -9.03281  22.58202
     129.50   3.112270     0.1660E-06  -8.94555  22.36386
     130.50   3.115611     0.1844E-06  -8.89974  22.24934
     131.50   3.118926     0.2305E-06  -8.80284  22.00710
     132.50   3.122216     0.2487E-06  -8.76988  21.92471
     133.50   3.125481     0.2844E-06  -8.71173  21.77933
     134.50   3.128722     0.3443E-06  -8.62869  21.57173
     135.50   3.131939     0.4156E-06  -8.54695  21.36738
     136.50   3.135133     0.4600E-06  -8.50285  21.25713
     137.50   3.138303     0.5176E-06  -8.45158  21.12896
     138.50   3.141450     0.5854E-06  -8.39816  20.99539
     139.50   3.144574     0.6764E-06  -8.33542  20.83855
     140.50   3.147676     0.8353E-06  -8.24378  20.60944
     141.50   3.150756     0.9757E-06  -8.17629  20.44072
     142.50   3.153815     0.1152E-05  -8.10433  20.26083
     143.50   3.156852     0.1391E-05  -8.02213  20.05531
     144.20   3.158965     0.1741E-05  -7.92489  19.81223
     144.70   3.160469     0.1651E-05  -7.94780  19.86951
     145.50   3.162863     0.1939E-05  -7.87804  19.69511
     146.50   3.165838     0.2475E-05  -7.77208  19.43019
     147.50   3.168792     0.2870E-05  -7.70775  19.26937
     148.50   3.171726     0.3177E-05  -7.66355  19.15888
     149.50   3.174641     0.4084E-05  -7.55451  18.88627
     150.50   3.177536     0.5000E-05  -7.46666  18.66664
     151.20   3.179552     0.4191E-05  -7.54325  18.85812
     151.70   3.180986     0.5148E-05  -7.45394  18.63486
     152.50   3.183270     0.1194E-04  -7.08878  17.72194
     153.50   3.186108     0.2025E-04  -6.85911  17.14778
     154.50   3.188928     0.1689E-04  -6.93801  17.34503
     155.50   3.191730     0.2870E-04  -6.70778  16.76945
     156.50   3.194514     0.2756E-04  -6.72539  16.81347
     157.50   3.197281     0.5919E-04  -6.39335  15.98337
     158.50   3.200029     0.7235E-04  -6.30615  15.76536
     159.50   3.202761     0.8558E-04  -6.23321  15.58302
     160.50   3.205475     0.9102E-04  -6.20645  15.51613
     161.50   3.208173     0.9942E-04  -6.16813  15.42033
     162.50   3.210853     0.1132E-03  -6.11162  15.27906
     163.50   3.213518     0.1398E-03  -6.02015  15.05037
     164.50   3.216166     0.2026E-03  -5.85898  14.64744
     165.50   3.218798     0.1382E-03  -6.02522  15.06305
     166.50   3.221414     0.2431E-03  -5.77988  14.44971
     167.20   3.223236     0.1688E-03  -5.93825  14.84564
     167.70   3.224533     0.7160E-03  -5.31071  13.27678
     168.50   3.226600     0.8021E-03  -5.26138  13.15345
     169.50   3.229170     0.1030E-02  -5.15272  12.88180
     170.50   3.231725     0.1102E-02  -5.12357  12.80894
     171.50   3.234264     0.1048E-02  -5.14529  12.86321
     172.50   3.236789     0.1414E-02  -5.01520  12.53800
     173.50   3.239300     0.1708E-02  -4.93322  12.33306
     174.50   3.241796     0.2417E-02  -4.78224  11.95561
     175.50   3.244277     0.3254E-02  -4.65317  11.63292
     176.50   3.246745     0.3127E-02  -4.67053  11.67633
     177.50   3.249198     0.3320E-02  -4.64443  11.61109
     178.50   3.251638     0.4544E-02  -4.50821  11.27052
     179.50   3.254065     0.5312E-02  -4.44033  11.10082
     180.50   3.256477     0.6042E-02  -4.38445  10.96112
     181.50   3.258877     0.5633E-02  -4.41485  11.03713
     182.50   3.261263     0.7472E-02  -4.29214  10.73035
     183.50   3.263636     0.7672E-02  -4.28070  10.70174
     184.50   3.265996     0.5970E-02  -4.38966  10.97414
     185.50   3.268344     0.8382E-02  -4.24224  10.60560
     186.50   3.270679     0.1002E-01  -4.16464  10.41160
     187.50   3.273001     0.1091E-01  -4.12776  10.31940
     188.50   3.275311     0.1185E-01  -4.09194  10.22985
     189.50   3.277609     0.1582E-01  -3.96638   9.91595
     190.50   3.279895     0.1541E-01  -3.97789   9.94472
     191.50   3.282169     0.1749E-01  -3.92273   9.80683
     192.50   3.284431     0.1775E-01  -3.91637   9.79093
     193.50   3.286681     0.1219E-01  -4.07943  10.19857
     194.50   3.288920     0.2320E-01  -3.80005   9.50013
     195.50   3.291147     0.2496E-01  -3.76837   9.42094
     196.70   3.293804     0.3230E-01  -3.65643   9.14108
     197.60   3.295787     0.3204E-01  -3.65986   9.14966
     198.40   3.297542     0.3672E-01  -3.60067   9.00167
     199.50   3.299943     0.3739E-01  -3.59284   8.98211
     200.50   3.302114     0.3713E-01  -3.59593   8.98982
     201.50   3.304275     0.4137E-01  -3.54895   8.87238
     202.50   3.306425     0.3398E-01  -3.63439   9.08599
     203.50   3.308564     0.4664E-01  -3.49679   8.74199
     204.50   3.310693     0.5374E-01  -3.43527   8.58818
     205.50   3.312812     0.5726E-01  -3.40774   8.51935
     206.50   3.314920     0.5754E-01  -3.40567   8.51417
     207.40   3.316809     0.6151E-01  -3.37667   8.44167
     207.80   3.317646     0.1395E+00  -3.02087   7.55218
     208.50   3.319106     0.1820E+00  -2.90546   7.26365
     209.50   3.321184     0.1734E+00  -2.92649   7.31622
     210.50   3.323252     0.1794E+00  -2.91186   7.27965
     211.50   3.325310     0.2113E+00  -2.84067   7.10167
     212.50   3.327359     0.1912E+00  -2.88403   7.21008
     213.50   3.329398     0.2052E+00  -2.85339   7.13348
     214.50   3.331427     0.2543E+00  -2.76031   6.90076
     215.50   3.333447     0.2378E+00  -2.78933   6.97334
     216.50   3.335458     0.2240E+00  -2.81527   7.03818
     217.50   3.337459     0.2233E+00  -2.81669   7.04171
     218.50   3.339452     0.2927E+00  -2.69912   6.74780
     219.50   3.341434     0.2962E+00  -2.69406   6.73515
     220.50   3.343409     0.3036E+00  -2.68327   6.70819
     221.50   3.345374     0.2437E+00  -2.77869   6.94672
     222.50   3.347330     0.3068E+00  -2.67876   6.69691
     223.50   3.349277     0.4302E+00  -2.53194   6.32984
     224.50   3.351216     0.4244E+00  -2.53787   6.34468
     225.50   3.353147     0.3461E+00  -2.62646   6.56614
     226.50   3.355068     0.2871E+00  -2.70763   6.76907
     227.50   3.356982     0.3279E+00  -2.64981   6.62453
     228.50   3.358886     0.4922E+00  -2.47349   6.18374
     229.50   3.360783     0.4068E+00  -2.55626   6.39065
     230.50   3.362671     0.4662E+00  -2.49705   6.24262
     231.50   3.364551     0.4386E+00  -2.52357   6.30891
     232.50   3.366423     0.4202E+00  -2.54212   6.35531
     233.50   3.368287     0.4222E+00  -2.54005   6.35014
     234.50   3.370143     0.2831E+00  -2.71364   6.78410
     235.50   3.371991     0.4811E+00  -2.48339   6.20847
     236.50   3.373831     0.3341E+00  -2.64171   6.60427
     237.50   3.375664     0.4172E+00  -2.54522   6.36306
     238.50   3.377488     0.2911E+00  -2.70158   6.75395
     239.50   3.379306     0.3579E+00  -2.61182   6.52954
     240.50   3.381115     0.3959E+00  -2.56797   6.41994
     241.50   3.382917     0.3859E+00  -2.57913   6.44782
     242.50   3.384712     0.6381E+00  -2.36073   5.90183
     243.50   3.386499     0.6893E+00  -2.32717   5.81792
     244.50   3.388279     0.8491E+00  -2.23664   5.59159
     245.50   3.390052     0.9271E+00  -2.19845   5.49613
     246.50   3.391817     0.7259E+00  -2.30471   5.76178
     247.50   3.393575     0.6566E+00  -2.34827   5.87068
     248.50   3.395326     0.2831E+00  -2.71373   6.78432
     249.50   3.397071     0.4341E+00  -2.52796   6.31991
     250.50   3.398808     0.7386E+00  -2.29720   5.74300
     251.30   3.400192     0.3524E+00  -2.61852   6.54631
     251.80   3.401056     0.2465E+00  -2.77384   6.93461
     252.50   3.402261     0.2868E+00  -2.70799   6.76998
     253.50   3.403978     0.6466E+00  -2.35497   5.88743
     254.50   3.405688     0.6866E+00  -2.32888   5.82219
     255.50   3.407391     0.1663E+01  -1.94482   4.86205
     256.50   3.409087     0.1137E+01  -2.10982   5.27455
     257.50   3.410777     0.1634E+01  -1.95231   4.88078
     258.50   3.412461     0.1467E+01  -1.99903   4.99757
     259.50   3.414137     0.1369E+01  -2.02935   5.07338
     260.50   3.415808     0.1244E+01  -2.07088   5.17720
     261.50   3.417472     0.1109E+01  -2.12050   5.30125
     262.50   3.419129     0.1578E+01  -1.96757   4.91893
     263.50   3.420781     0.3234E+01  -1.65583   4.13958
     264.50   3.422426     0.4173E+01  -1.54518   3.86294
     265.50   3.424065     0.7203E+01  -1.30810   3.27025
     266.50   3.425697     0.3781E+01  -1.58804   3.97010
     267.50   3.427324     0.4268E+01  -1.53534   3.83836
     268.50   3.428944     0.5493E+01  -1.42580   3.56451
     269.50   3.430559     0.3439E+01  -1.62914   4.07286
     270.50   3.432167     0.4874E+01  -1.47772   3.69431
     271.50   3.433770     0.3224E+01  -1.65717   4.14292
     272.50   3.435366     0.1967E+01  -1.87178   4.67946
     273.50   3.436957     0.2873E+01  -1.70724   4.26810
     274.50   3.438542     0.1822E+01  -1.90511   4.76277
     275.50   3.440122     0.2592E+01  -1.75196   4.37990
     276.50   3.441695     0.3572E+01  -1.61265   4.03161
     277.50   3.443263     0.3805E+01  -1.58520   3.96301
     278.50   3.444825     0.2235E+01  -1.81642   4.54104
     279.50   3.446382     0.1016E+01  -2.15851   5.39628
     280.50   3.447933     0.1257E+01  -2.06641   5.16601
     281.50   3.449478     0.3389E+01  -1.63546   4.08866
     282.50   3.451018     0.4791E+01  -1.48522   3.71304
     283.50   3.452553     0.4132E+01  -1.54943   3.87356
     284.50   3.454082     0.2357E+01  -1.79332   4.48331
     285.50   3.455606     0.1123E+01  -2.11505   5.28763
     286.50   3.457125     0.3611E+01  -1.60802   4.02004
     287.50   3.458638     0.6569E+01  -1.34809   3.37021
     288.50   3.460146     0.6264E+01  -1.36874   3.42186
     289.50   3.461648     0.8950E+01  -1.21379   3.03447
     291.00   3.463893     0.1365E+02  -1.03040   2.57600
     293.00   3.466868     0.1215E+02  -1.08117   2.70292
     295.00   3.469822     0.1128E+02  -1.11320   2.78300
     297.00   3.472756     0.1189E+02  -1.09025   2.72562
     299.00   3.475671     0.1243E+02  -1.07127   2.67817
     301.00   3.478566     0.1193E+02  -1.08889   2.72224
     303.00   3.481443     0.1390E+02  -1.02244   2.55611
     305.00   3.484300     0.1428E+02  -1.01081   2.52702
     307.00   3.487138     0.1612E+02  -0.95836   2.39589
     309.00   3.489959     0.1457E+02  -1.00217   2.50543
     311.00   3.492760     0.1894E+02  -0.88820   2.22050
     313.00   3.495544     0.1669E+02  -0.94303   2.35758
     315.00   3.498311     0.1740E+02  -0.92512   2.31280
     317.00   3.501059     0.2017E+02  -0.86082   2.15204
     319.00   3.503791     0.1661E+02  -0.94523   2.36307
     321.00   3.506505     0.1846E+02  -0.89941   2.24853
     323.00   3.509202     0.1540E+02  -0.97817   2.44543
     325.00   3.511883     0.2382E+02  -0.78870   1.97176
     327.00   3.514548     0.2860E+02  -0.70930   1.77324
     329.00   3.517196     0.2825E+02  -0.71451   1.78627
     331.00   3.519828     0.2540E+02  -0.76072   1.90179
     333.00   3.522444     0.2682E+02  -0.73710   1.84274
     335.00   3.525045     0.2589E+02  -0.75243   1.88107
     337.00   3.527630     0.1786E+02  -0.91368   2.28420
     339.00   3.530200     0.2107E+02  -0.84203   2.10508
     341.00   3.532754     0.2193E+02  -0.82459   2.06148
     343.00   3.535294     0.2342E+02  -0.79598   1.98994
     345.00   3.537819     0.2612E+02  -0.74865   1.87162
     347.00   3.540329     0.2757E+02  -0.72521   1.81303
     349.00   3.542825     0.3195E+02  -0.66110   1.65275
     351.00   3.545307     0.3436E+02  -0.62950   1.57374
     353.00   3.547775     0.2951E+02  -0.69570   1.73926
     355.00   3.550228     0.3370E+02  -0.63798   1.59495
     357.00   3.552668     0.2199E+02  -0.82344   2.05859
     359.00   3.555094     0.2382E+02  -0.78865   1.97162
     361.00   3.557507     0.3209E+02  -0.65917   1.64793
     363.00   3.559907     0.3440E+02  -0.62906   1.57266
     364.00   3.561101     0.3497E+02  -0.62185   1.55463
     365.00   3.562293     0.3920E+02  -0.57229   1.43073
     367.00   3.564666     0.4352E+02  -0.52688   1.31719
     369.00   3.567026     0.3710E+02  -0.59622   1.49056
     371.00   3.569374     0.3834E+02  -0.58190   1.45474
     373.00   3.571709     0.2178E+02  -0.82749   2.06873
     375.00   3.574031     0.2552E+02  -0.75875   1.89688
     377.00   3.576341     0.3683E+02  -0.59944   1.49860
     379.00   3.578639     0.3778E+02  -0.58835   1.47088
     381.00   3.580925     0.3330E+02  -0.64321   1.60802
     383.00   3.583199     0.1664E+02  -0.94439   2.36097
     385.00   3.585461     0.2326E+02  -0.79903   1.99758
     387.00   3.587711     0.2340E+02  -0.79636   1.99089
     389.00   3.589950     0.3464E+02  -0.62604   1.56511
     391.00   3.592177     0.4420E+02  -0.52021   1.30052
     393.00   3.594393     0.1966E+02  -0.87205   2.18013
     395.00   3.596597     0.3685E+02  -0.59917   1.49791
     397.00   3.598790     0.2514E+02  -0.76517   1.91293
     399.00   3.600973     0.6239E+02  -0.37048   0.92620
     401.00   3.603144     0.7098E+02  -0.31447   0.78617
     403.00   3.605305     0.6959E+02  -0.32302   0.80756
     405.00   3.607455     0.6614E+02  -0.34510   0.86276
     407.00   3.609594     0.6076E+02  -0.38201   0.95503
     409.00   3.611723     0.8168E+02  -0.25349   0.63373
     411.00   3.613842     0.7621E+02  -0.28356   0.70890
     413.00   3.615950     0.7154E+02  -0.31108   0.77770
     415.00   3.618048     0.6944E+02  -0.32398   0.80996
     417.00   3.620136     0.7109E+02  -0.31378   0.78444
     419.00   3.622214     0.7042E+02  -0.31791   0.79477
     421.00   3.624282     0.7150E+02  -0.31126   0.77816
     423.00   3.626340     0.6425E+02  -0.35772   0.89431
     425.00   3.628389     0.7430E+02  -0.29464   0.73659
     427.00   3.630428     0.6938E+02  -0.32438   0.81095
     429.00   3.632457     0.6507E+02  -0.35221   0.88053
     431.00   3.634477     0.5726E+02  -0.40775   1.01936
     433.00   3.636488     0.8881E+02  -0.21713   0.54283
     435.00   3.638489     0.9105E+02  -0.20633   0.51581
     437.00   3.640481     0.9926E+02  -0.16883   0.42207
     439.00   3.642465     0.8448E+02  -0.23887   0.59717
     441.00   3.644439     0.8974E+02  -0.21261   0.53151
     443.00   3.646404     0.9782E+02  -0.17517   0.43792
     445.00   3.648360     0.1001E+03  -0.16521   0.41303
     447.00   3.650307     0.1095E+03  -0.12603   0.31509
     449.00   3.652246     0.1138E+03  -0.10935   0.27338
     451.00   3.654176     0.1349E+03  -0.03569   0.08922
     453.00   3.656098     0.1129E+03  -0.11272   0.28179
     455.00   3.658011     0.1206E+03  -0.08435   0.21086
     457.00   3.659916     0.1337E+03  -0.03958   0.09896
     459.00   3.661813     0.1246E+03  -0.07021   0.17553
     461.00   3.663701     0.1286E+03  -0.05638   0.14095
     463.00   3.665581     0.1239E+03  -0.07237   0.18092
     465.00   3.667453     0.1262E+03  -0.06465   0.16163
     467.00   3.669317     0.1343E+03  -0.03739   0.09347
     469.00   3.671173     0.1313E+03  -0.04727   0.11817
     471.00   3.673021     0.1270E+03  -0.06184   0.15459
     473.00   3.674861     0.1321E+03  -0.04485   0.11212
     475.00   3.676694     0.1361E+03  -0.03172   0.07930
     477.00   3.678518     0.1318E+03  -0.04556   0.11389
     479.00   3.680336     0.1340E+03  -0.03843   0.09606
     481.00   3.682145     0.1349E+03  -0.03547   0.08867
     483.00   3.683947     0.1417E+03  -0.01414   0.03536
     485.00   3.685742     0.1343E+03  -0.03745   0.09363
     487.00   3.687529     0.1231E+03  -0.07549   0.18871
     489.00   3.689309     0.1372E+03  -0.02825   0.07062
     491.00   3.691082     0.1381E+03  -0.02546   0.06365
     493.00   3.692847     0.1348E+03  -0.03576   0.08941
     495.00   3.694605     0.1407E+03  -0.01738   0.04345
     497.00   3.696356     0.1332E+03  -0.04101   0.10251
     499.00   3.698101     0.1225E+03  -0.07738   0.19345
     501.00   3.699838     0.1133E+03  -0.11128   0.27819
     503.00   3.701568     0.1233E+03  -0.07456   0.18641
     505.00   3.703291     0.1231E+03  -0.07526   0.18815
     507.00   3.705008     0.1293E+03  -0.05406   0.13515
     509.00   3.706718     0.1205E+03  -0.08444   0.21110
     511.00   3.708421     0.1250E+03  -0.06882   0.17204
     513.00   3.710117     0.1198E+03  -0.08722   0.21806
     515.00   3.711807     0.1150E+03  -0.10485   0.26212
     517.00   3.713490     0.9891E+02  -0.17034   0.42586
     519.00   3.715167     0.1049E+03  -0.14462   0.36155
     521.00   3.716838     0.1186E+03  -0.09156   0.22890
     523.00   3.718502     0.1354E+03  -0.03399   0.08498
     525.00   3.720159     0.1441E+03  -0.00706   0.01764
     527.00   3.721811     0.1222E+03  -0.07839   0.19597
     529.00   3.723456     0.1485E+03   0.00605  -0.01512
     531.00   3.725095     0.1613E+03   0.04199  -0.10498
     533.00   3.726727     0.1358E+03  -0.03269   0.08171
     535.00   3.728354     0.1542E+03   0.02246  -0.05615
     537.00   3.729974     0.1525E+03   0.01753  -0.04383
     539.00   3.731589     0.1481E+03   0.00494  -0.01235
     541.00   3.733197     0.1463E+03  -0.00024   0.00059
     543.00   3.734800     0.1492E+03   0.00808  -0.02020
     545.00   3.736397     0.1515E+03   0.01489  -0.03723
     547.00   3.737987     0.1475E+03   0.00318  -0.00794
     549.00   3.739572     0.1489E+03   0.00725  -0.01812
     551.00   3.741152     0.1464E+03   0.00000   0.00000
     553.00   3.742725     0.1549E+03   0.02449  -0.06123
     555.00   3.744293     0.1587E+03   0.03492  -0.08729
     557.00   3.745855     0.1553E+03   0.02567  -0.06417
     559.00   3.747412     0.1498E+03   0.00992  -0.02481
     561.00   3.748963     0.1558E+03   0.02700  -0.06750
     563.00   3.750508     0.1547E+03   0.02384  -0.05960
