age =   12.0    [Fe/H] =    0.25

wavele(nm) log wave(A)   Hlam       log(Hlam/Hlam(V))  Hlam(mag(V)) 
      90.50   2.956649     0.5860E-14 -16.32353  40.80882
      91.50   2.961421     0.1397E-12 -14.94637  37.36592
      92.50   2.966142     0.1521E-11 -13.90929  34.77323
      93.50   2.970812     0.2161E-11 -13.75677  34.39193
      94.50   2.975432     0.3288E-11 -13.57454  33.93636
      95.50   2.980003     0.5019E-11 -13.39086  33.47716
      96.50   2.984527     0.7786E-11 -13.20015  33.00037
      97.50   2.989005     0.1074E-10 -13.06037  32.65092
      98.50   2.993436     0.1547E-10 -12.90184  32.25460
      99.50   2.997823     0.2159E-10 -12.75717  31.89291
     100.50   3.002166     0.3283E-10 -12.57522  31.43804
     101.50   3.006466     0.4632E-10 -12.42568  31.06419
     102.50   3.010724     0.5581E-10 -12.34475  30.86187
     103.50   3.014940     0.9187E-10 -12.12827  30.32067
     104.50   3.019116     0.1300E-09 -11.97754  29.94386
     105.50   3.023252     0.1668E-09 -11.86917  29.67291
     106.50   3.027350     0.2346E-09 -11.72120  29.30300
     107.50   3.031409     0.3218E-09 -11.58379  28.95949
     108.50   3.035430     0.4378E-09 -11.45018  28.62545
     109.50   3.039414     0.5511E-09 -11.35023  28.37559
     110.50   3.043362     0.9179E-09 -11.12863  27.82158
     111.50   3.047275     0.1295E-08 -10.97931  27.44827
     112.50   3.051152     0.1816E-08 -10.83235  27.08086
     113.50   3.054996     0.2617E-08 -10.67362  26.68405
     114.50   3.058805     0.3507E-08 -10.54647  26.36617
     115.50   3.062582     0.4397E-08 -10.44825  26.12063
     116.50   3.066326     0.5907E-08 -10.32008  25.80019
     117.50   3.070038     0.7747E-08 -10.20234  25.50585
     118.50   3.073718     0.9347E-08 -10.12079  25.30197
     119.50   3.077368     0.1025E-07 -10.08066  25.20166
     120.50   3.080987     0.1249E-07  -9.99492  24.98730
     121.50   3.084576     0.7367E-08 -10.22418  25.56045
     122.50   3.088136     0.1867E-07  -9.82028  24.55069
     123.50   3.091667     0.2779E-07  -9.64762  24.11906
     124.50   3.095169     0.3497E-07  -9.54774  23.86935
     125.50   3.098644     0.4207E-07  -9.46749  23.66874
     126.50   3.102091     0.4954E-07  -9.39648  23.49120
     127.50   3.105510     0.6044E-07  -9.31014  23.27535
     128.50   3.108903     0.6891E-07  -9.25315  23.13288
     129.50   3.112270     0.8440E-07  -9.16512  22.91281
     130.50   3.115611     0.9602E-07  -9.10909  22.77271
     131.50   3.118926     0.1200E-06  -9.01241  22.53102
     132.50   3.122216     0.1321E-06  -8.97038  22.42595
     133.50   3.125481     0.1528E-06  -8.90745  22.26863
     134.50   3.128722     0.1861E-06  -8.82165  22.05413
     135.50   3.131939     0.2265E-06  -8.73639  21.84096
     136.50   3.135133     0.2547E-06  -8.68549  21.71372
     137.50   3.138303     0.2907E-06  -8.62795  21.56987
     138.50   3.141450     0.3327E-06  -8.56937  21.42343
     139.50   3.144574     0.3877E-06  -8.50299  21.25749
     140.50   3.147676     0.4788E-06  -8.41129  21.02823
     141.50   3.150756     0.5634E-06  -8.34060  20.85150
     142.50   3.153815     0.6677E-06  -8.26685  20.66712
     143.50   3.156852     0.8073E-06  -8.18440  20.46099
     144.20   3.158965     0.9932E-06  -8.09443  20.23606
     144.70   3.160469     0.9654E-06  -8.10672  20.26679
     145.50   3.162863     0.1130E-05  -8.03829  20.09573
     146.50   3.165838     0.1428E-05  -7.93681  19.84202
     147.50   3.168792     0.1662E-05  -7.87084  19.67710
     148.50   3.171726     0.1861E-05  -7.82161  19.55402
     149.50   3.174641     0.2363E-05  -7.71807  19.29518
     150.50   3.177536     0.2880E-05  -7.63213  19.08032
     151.20   3.179552     0.2534E-05  -7.68769  19.21922
     151.70   3.180986     0.3048E-05  -7.60747  19.01869
     152.50   3.183270     0.6525E-05  -7.27688  18.19219
     153.50   3.186108     0.1083E-04  -7.05680  17.64201
     154.50   3.188928     0.9207E-05  -7.12731  17.81827
     155.50   3.191730     0.1535E-04  -6.90533  17.26332
     156.50   3.194514     0.1494E-04  -6.91709  17.29273
     157.50   3.197281     0.3261E-04  -6.57808  16.44521
     158.50   3.200029     0.3969E-04  -6.49273  16.23183
     159.50   3.202761     0.4694E-04  -6.41989  16.04973
     160.50   3.205475     0.4983E-04  -6.39394  15.98485
     161.50   3.208173     0.5444E-04  -6.35556  15.88890
     162.50   3.210853     0.6198E-04  -6.29919  15.74798
     163.50   3.213518     0.7775E-04  -6.20073  15.50182
     164.50   3.216166     0.1124E-03  -6.04062  15.10156
     165.50   3.218798     0.7881E-04  -6.19489  15.48723
     166.50   3.221414     0.1362E-03  -5.95742  14.89356
     167.20   3.223236     0.9529E-04  -6.11241  15.28101
     167.70   3.224533     0.3948E-03  -5.49503  13.73757
     168.50   3.226600     0.4432E-03  -5.44488  13.61221
     169.50   3.229170     0.5708E-03  -5.33498  13.33745
     170.50   3.231725     0.6102E-03  -5.30599  13.26498
     171.50   3.234264     0.5837E-03  -5.32528  13.31321
     172.50   3.236789     0.7985E-03  -5.18915  12.97286
     173.50   3.239300     0.9642E-03  -5.10727  12.76817
     174.50   3.241796     0.1369E-02  -4.95501  12.38754
     175.50   3.244277     0.1826E-02  -4.83005  12.07513
     176.50   3.246745     0.1770E-02  -4.84336  12.10840
     177.50   3.249198     0.1866E-02  -4.82064  12.05160
     178.50   3.251638     0.2593E-02  -4.67762  11.69406
     179.50   3.254065     0.2980E-02  -4.61730  11.54324
     180.50   3.256477     0.3467E-02  -4.55150  11.37874
     181.50   3.258877     0.3212E-02  -4.58469  11.46173
     182.50   3.261263     0.4314E-02  -4.45653  11.14133
     183.50   3.263636     0.4409E-02  -4.44715  11.11787
     184.50   3.265996     0.3460E-02  -4.55238  11.38095
     185.50   3.268344     0.4794E-02  -4.41072  11.02680
     186.50   3.270679     0.5778E-02  -4.32969  10.82423
     187.50   3.273001     0.6283E-02  -4.29326  10.73316
     188.50   3.275311     0.6852E-02  -4.25563  10.63907
     189.50   3.277609     0.9196E-02  -4.12787  10.31966
     190.50   3.279895     0.8934E-02  -4.14042  10.35104
     191.50   3.282169     0.1025E-01  -4.08066  10.20164
     192.50   3.284431     0.1035E-01  -4.07631  10.19079
     193.50   3.286681     0.7014E-02  -4.24545  10.61363
     194.50   3.288920     0.1352E-01  -3.96047   9.90118
     195.50   3.291147     0.1472E-01  -3.92351   9.80878
     196.70   3.293804     0.1895E-01  -3.81383   9.53458
     197.60   3.295787     0.1902E-01  -3.81228   9.53070
     198.40   3.297542     0.2156E-01  -3.75772   9.39429
     199.50   3.299943     0.2186E-01  -3.75179   9.37948
     200.50   3.302114     0.2178E-01  -3.75338   9.38344
     201.50   3.304275     0.2440E-01  -3.70409   9.26022
     202.50   3.306425     0.1994E-01  -3.79164   9.47910
     203.50   3.308564     0.2747E-01  -3.65264   9.13161
     204.50   3.310693     0.3158E-01  -3.59200   8.98001
     205.50   3.312812     0.3391E-01  -3.56108   8.90271
     206.50   3.314920     0.3407E-01  -3.55907   8.89767
     207.40   3.316809     0.3616E-01  -3.53316   8.83291
     207.80   3.317646     0.7839E-01  -3.19720   7.99299
     208.50   3.319106     0.1009E+00  -3.08774   7.71936
     209.50   3.321184     0.9711E-01  -3.10419   7.76047
     210.50   3.323252     0.1006E+00  -3.08878   7.72196
     211.50   3.325310     0.1190E+00  -3.01583   7.53958
     212.50   3.327359     0.1086E+00  -3.05548   7.63871
     213.50   3.329398     0.1191E+00  -3.01547   7.53867
     214.50   3.331427     0.1433E+00  -2.93515   7.33788
     215.50   3.333447     0.1337E+00  -2.96533   7.41332
     216.50   3.335458     0.1276E+00  -2.98568   7.46419
     217.50   3.337459     0.1280E+00  -2.98411   7.46027
     218.50   3.339452     0.1631E+00  -2.87906   7.19765
     219.50   3.341434     0.1692E+00  -2.86294   7.15734
     220.50   3.343409     0.1740E+00  -2.85082   7.12704
     221.50   3.345374     0.1435E+00  -2.93464   7.33661
     222.50   3.347330     0.1783E+00  -2.84040   7.10100
     223.50   3.349277     0.2498E+00  -2.69388   6.73469
     224.50   3.351216     0.2489E+00  -2.69546   6.73864
     225.50   3.353147     0.2078E+00  -2.77383   6.93457
     226.50   3.355068     0.1698E+00  -2.86155   7.15388
     227.50   3.356982     0.1953E+00  -2.80081   7.00203
     228.50   3.358886     0.2894E+00  -2.63002   6.57504
     229.50   3.360783     0.2451E+00  -2.70204   6.75509
     230.50   3.362671     0.2682E+00  -2.66304   6.65760
     231.50   3.364551     0.2665E+00  -2.66571   6.66428
     232.50   3.366423     0.2610E+00  -2.67472   6.68681
     233.50   3.368287     0.2727E+00  -2.65576   6.63941
     234.50   3.370143     0.1851E+00  -2.82393   7.05982
     235.50   3.371991     0.2961E+00  -2.62001   6.55002
     236.50   3.373831     0.2173E+00  -2.75437   6.88593
     237.50   3.375664     0.2665E+00  -2.66582   6.66454
     238.50   3.377488     0.1964E+00  -2.79829   6.99574
     239.50   3.379306     0.2374E+00  -2.71592   6.78980
     240.50   3.381115     0.2679E+00  -2.66346   6.65866
     241.50   3.382917     0.2504E+00  -2.69280   6.73201
     242.50   3.384712     0.4018E+00  -2.48746   6.21865
     243.50   3.386499     0.4387E+00  -2.44924   6.12309
     244.50   3.388279     0.5410E+00  -2.35825   5.89563
     245.50   3.390052     0.5903E+00  -2.32036   5.80091
     246.50   3.391817     0.4582E+00  -2.43038   6.07595
     247.50   3.393575     0.4215E+00  -2.46669   6.16672
     248.50   3.395326     0.1791E+00  -2.83832   7.09581
     249.50   3.397071     0.2746E+00  -2.65278   6.63196
     250.50   3.398808     0.4676E+00  -2.42160   6.05400
     251.30   3.400192     0.2339E+00  -2.72239   6.80598
     251.80   3.401056     0.1644E+00  -2.87563   7.18908
     252.50   3.402261     0.1905E+00  -2.81164   7.02909
     253.50   3.403978     0.4364E+00  -2.45153   6.12882
     254.50   3.405688     0.4604E+00  -2.42831   6.07077
     255.50   3.407391     0.1106E+01  -2.04760   5.11901
     256.50   3.409087     0.7599E+00  -2.21069   5.52672
     257.50   3.410777     0.1103E+01  -2.04897   5.12243
     258.50   3.412461     0.1000E+01  -2.09133   5.22832
     259.50   3.414137     0.9486E+00  -2.11435   5.28588
     260.50   3.415808     0.8833E+00  -2.14535   5.36337
     261.50   3.417472     0.7884E+00  -2.19471   5.48678
     262.50   3.419129     0.1115E+01  -2.04404   5.11009
     263.50   3.420781     0.2276E+01  -1.73419   4.33547
     264.50   3.422426     0.2866E+01  -1.63423   4.08558
     265.50   3.424065     0.5086E+01  -1.38504   3.46260
     266.50   3.425697     0.2654E+01  -1.66748   4.16870
     267.50   3.427324     0.2949E+01  -1.62180   4.05449
     268.50   3.428944     0.3857E+01  -1.50519   3.76297
     269.50   3.430559     0.2345E+01  -1.72124   4.30311
     270.50   3.432167     0.3405E+01  -1.55930   3.89825
     271.50   3.433770     0.2247E+01  -1.73978   4.34946
     272.50   3.435366     0.1341E+01  -1.96406   4.91016
     273.50   3.436957     0.1971E+01  -1.79678   4.49194
     274.50   3.438542     0.1322E+01  -1.97035   4.92587
     275.50   3.440122     0.1862E+01  -1.82145   4.55362
     276.50   3.441695     0.2568E+01  -1.68181   4.20452
     277.50   3.443263     0.2751E+01  -1.65202   4.13005
     278.50   3.444825     0.1628E+01  -1.87967   4.69918
     279.50   3.446382     0.7661E+00  -2.20716   5.51791
     280.50   3.447933     0.9420E+00  -2.11742   5.29354
     281.50   3.449478     0.2449E+01  -1.70250   4.25626
     282.50   3.451018     0.3364E+01  -1.56454   3.91135
     283.50   3.452553     0.2813E+01  -1.64225   4.10562
     284.50   3.454082     0.1583E+01  -1.89203   4.73008
     285.50   3.455606     0.7523E+00  -2.21504   5.53760
     286.50   3.457125     0.2389E+01  -1.71331   4.28326
     287.50   3.458638     0.4455E+01  -1.44259   3.60648
     288.50   3.460146     0.4434E+01  -1.44466   3.61165
     289.50   3.461648     0.6493E+01  -1.27902   3.19756
     291.00   3.463893     0.1017E+02  -1.08391   2.70978
     293.00   3.466868     0.9051E+01  -1.13476   2.83689
     295.00   3.469822     0.8359E+01  -1.16930   2.92324
     297.00   3.472756     0.8761E+01  -1.14889   2.87224
     299.00   3.475671     0.9178E+01  -1.12867   2.82168
     301.00   3.478566     0.8733E+01  -1.15030   2.87575
     303.00   3.481443     0.1036E+02  -1.07625   2.69062
     305.00   3.484300     0.1064E+02  -1.06439   2.66098
     307.00   3.487138     0.1222E+02  -1.00454   2.51136
     309.00   3.489959     0.1091E+02  -1.05367   2.63418
     311.00   3.492760     0.1459E+02  -0.92727   2.31817
     313.00   3.495544     0.1270E+02  -0.98747   2.46868
     315.00   3.498311     0.1347E+02  -0.96211   2.40528
     317.00   3.501059     0.1576E+02  -0.89400   2.23501
     319.00   3.503791     0.1285E+02  -0.98245   2.45613
     321.00   3.506505     0.1423E+02  -0.93825   2.34562
     323.00   3.509202     0.1192E+02  -1.01521   2.53802
     325.00   3.511883     0.1875E+02  -0.81853   2.04633
     327.00   3.514548     0.2263E+02  -0.73681   1.84201
     329.00   3.517196     0.2249E+02  -0.73938   1.84845
     331.00   3.519828     0.1999E+02  -0.79055   1.97638
     333.00   3.522444     0.2118E+02  -0.76556   1.91391
     335.00   3.525045     0.2037E+02  -0.78236   1.95589
     337.00   3.527630     0.1379E+02  -0.95204   2.38009
     339.00   3.530200     0.1635E+02  -0.87780   2.19450
     341.00   3.532754     0.1709E+02  -0.85878   2.14696
     343.00   3.535294     0.1842E+02  -0.82620   2.06549
     345.00   3.537819     0.2052E+02  -0.77919   1.94797
     347.00   3.540329     0.2174E+02  -0.75410   1.88525
     349.00   3.542825     0.2545E+02  -0.68575   1.71438
     351.00   3.545307     0.2751E+02  -0.65194   1.62984
     353.00   3.547775     0.2342E+02  -0.72182   1.80455
     355.00   3.550228     0.2677E+02  -0.66374   1.65934
     357.00   3.552668     0.1714E+02  -0.85737   2.14341
     359.00   3.555094     0.1875E+02  -0.81834   2.04586
     361.00   3.557507     0.2568E+02  -0.68178   1.70445
     363.00   3.559907     0.2769E+02  -0.64905   1.62261
     364.00   3.561101     0.2817E+02  -0.64159   1.60397
     365.00   3.562293     0.3155E+02  -0.59248   1.48119
     367.00   3.564666     0.3535E+02  -0.54302   1.35755
     369.00   3.567026     0.2981E+02  -0.61709   1.54273
     371.00   3.569374     0.3058E+02  -0.60603   1.51508
     373.00   3.571709     0.1668E+02  -0.86936   2.17340
     375.00   3.574031     0.1969E+02  -0.79718   1.99294
     377.00   3.576341     0.2927E+02  -0.62497   1.56241
     379.00   3.578639     0.3006E+02  -0.61341   1.53352
     381.00   3.580925     0.2618E+02  -0.67353   1.68383
     383.00   3.583199     0.1279E+02  -0.98468   2.46171
     385.00   3.585461     0.1802E+02  -0.83577   2.08944
     387.00   3.587711     0.1818E+02  -0.83186   2.07965
     389.00   3.589950     0.2743E+02  -0.65323   1.63309
     391.00   3.592177     0.3548E+02  -0.54143   1.35358
     393.00   3.594393     0.1559E+02  -0.89856   2.24640
     395.00   3.596597     0.2965E+02  -0.61945   1.54863
     397.00   3.598790     0.2019E+02  -0.78621   1.96552
     399.00   3.600973     0.5100E+02  -0.38389   0.95974
     401.00   3.603144     0.5823E+02  -0.32630   0.81575
     403.00   3.605305     0.5684E+02  -0.33678   0.84196
     405.00   3.607455     0.5393E+02  -0.35960   0.89901
     407.00   3.609594     0.4930E+02  -0.39862   0.99655
     409.00   3.611723     0.6728E+02  -0.26359   0.65897
     411.00   3.613842     0.6259E+02  -0.29493   0.73732
     413.00   3.615950     0.5839E+02  -0.32512   0.81280
     415.00   3.618048     0.5639E+02  -0.34027   0.85068
     417.00   3.620136     0.5794E+02  -0.32843   0.82108
     419.00   3.622214     0.5743E+02  -0.33228   0.83070
     421.00   3.624282     0.5828E+02  -0.32591   0.81479
     423.00   3.626340     0.5207E+02  -0.37490   0.93724
     425.00   3.628389     0.6079E+02  -0.30765   0.76911
     427.00   3.630428     0.5677E+02  -0.33734   0.84335
     429.00   3.632457     0.5332E+02  -0.36458   0.91145
     431.00   3.634477     0.4712E+02  -0.41822   1.04555
     433.00   3.636488     0.7354E+02  -0.22495   0.56237
     435.00   3.638489     0.7573E+02  -0.21219   0.53047
     437.00   3.640481     0.8241E+02  -0.17548   0.43870
     439.00   3.642465     0.6981E+02  -0.24752   0.61879
     441.00   3.644439     0.7414E+02  -0.22141   0.55353
     443.00   3.646404     0.8107E+02  -0.18260   0.45651
     445.00   3.648360     0.8308E+02  -0.17194   0.42986
     447.00   3.650307     0.9118E+02  -0.13156   0.32889
     449.00   3.652246     0.9492E+02  -0.11407   0.28518
     451.00   3.654176     0.1128E+03  -0.03897   0.09742
     453.00   3.656098     0.9415E+02  -0.11762   0.29405
     455.00   3.658011     0.1008E+03  -0.08820   0.22050
     457.00   3.659916     0.1118E+03  -0.04284   0.10709
     459.00   3.661813     0.1042E+03  -0.07358   0.18394
     461.00   3.663701     0.1076E+03  -0.05957   0.14894
     463.00   3.665581     0.1037E+03  -0.07569   0.18923
     465.00   3.667453     0.1055E+03  -0.06817   0.17042
     467.00   3.669317     0.1125E+03  -0.04018   0.10046
     469.00   3.671173     0.1100E+03  -0.05020   0.12549
     471.00   3.673021     0.1063E+03  -0.06477   0.16192
     473.00   3.674861     0.1105E+03  -0.04819   0.12047
     475.00   3.676694     0.1139E+03  -0.03504   0.08759
     477.00   3.678518     0.1101E+03  -0.04955   0.12387
     479.00   3.680336     0.1121E+03  -0.04186   0.10465
     481.00   3.682145     0.1130E+03  -0.03823   0.09557
     483.00   3.683947     0.1188E+03  -0.01670   0.04176
     485.00   3.685742     0.1128E+03  -0.03915   0.09788
     487.00   3.687529     0.1035E+03  -0.07663   0.19158
     489.00   3.689309     0.1151E+03  -0.03037   0.07591
     491.00   3.691082     0.1159E+03  -0.02742   0.06855
     493.00   3.692847     0.1131E+03  -0.03812   0.09530
     495.00   3.694605     0.1179E+03  -0.02000   0.05000
     497.00   3.696356     0.1115E+03  -0.04428   0.11069
     499.00   3.698101     0.1025E+03  -0.08079   0.20198
     501.00   3.699838     0.9463E+02  -0.11544   0.28859
     503.00   3.701568     0.1031E+03  -0.07818   0.19546
     505.00   3.703291     0.1028E+03  -0.07933   0.19832
     507.00   3.705008     0.1080E+03  -0.05815   0.14537
     509.00   3.706718     0.1006E+03  -0.08886   0.22216
     511.00   3.708421     0.1043E+03  -0.07306   0.18265
     513.00   3.710117     0.9996E+02  -0.09161   0.22903
     515.00   3.711807     0.9590E+02  -0.10964   0.27410
     517.00   3.713490     0.8209E+02  -0.17715   0.44287
     519.00   3.715167     0.8736E+02  -0.15011   0.37529
     521.00   3.716838     0.9910E+02  -0.09536   0.23839
     523.00   3.718502     0.1138E+03  -0.03543   0.08857
     525.00   3.720159     0.1213E+03  -0.00748   0.01869
     527.00   3.721811     0.1026E+03  -0.08027   0.20068
     529.00   3.723456     0.1251E+03   0.00598  -0.01494
     531.00   3.725095     0.1362E+03   0.04264  -0.10660
     533.00   3.726727     0.1144E+03  -0.03320   0.08300
     535.00   3.728354     0.1301E+03   0.02275  -0.05688
     537.00   3.729974     0.1285E+03   0.01756  -0.04389
     539.00   3.731589     0.1249E+03   0.00498  -0.01246
     541.00   3.733197     0.1234E+03  -0.00001   0.00004
     543.00   3.734800     0.1257E+03   0.00806  -0.02015
     545.00   3.736397     0.1276E+03   0.01437  -0.03593
     547.00   3.737987     0.1244E+03   0.00324  -0.00809
     549.00   3.739572     0.1256E+03   0.00761  -0.01902
     551.00   3.741152     0.1234E+03   0.00000   0.00000
     553.00   3.742725     0.1308E+03   0.02520  -0.06300
     555.00   3.744293     0.1341E+03   0.03587  -0.08967
     557.00   3.745855     0.1313E+03   0.02669  -0.06671
     559.00   3.747412     0.1265E+03   0.01048  -0.02619
     561.00   3.748963     0.1315E+03   0.02756  -0.06890
     563.00   3.750508     0.1307E+03   0.02482  -0.06205
