age =   12.0    [Fe/H] =   -0.25

wavele(nm) log wave(A)   Hlam       log(Hlam/Hlam(V))  Hlam(mag(V)) 
      89.50   2.951823     0.1060E-12 -15.20772  38.01931
      90.50   2.956649     0.2235E-12 -14.88383  37.20958
      91.50   2.961421     0.3499E-12 -14.68905  36.72263
      92.50   2.966142     0.6584E-10 -12.41459  31.03647
      93.50   2.970812     0.9101E-10 -12.27395  30.68488
      94.50   2.975432     0.1300E-09 -12.11921  30.29802
      95.50   2.980003     0.1939E-09 -11.94548  29.86370
      96.50   2.984527     0.2786E-09 -11.78811  29.47028
      97.50   2.989005     0.3666E-09 -11.66884  29.17210
      98.50   2.993436     0.5159E-09 -11.52052  28.80131
      99.50   2.997823     0.6972E-09 -11.38969  28.47424
     100.50   3.002166     0.1017E-08 -11.22586  28.06464
     101.50   3.006466     0.1364E-08 -11.09826  27.74566
     102.50   3.010724     0.1545E-08 -11.04420  27.61050
     103.50   3.014940     0.2516E-08 -10.83233  27.08083
     104.50   3.019116     0.3440E-08 -10.69650  26.74124
     105.50   3.023252     0.4367E-08 -10.59284  26.48210
     106.50   3.027350     0.5818E-08 -10.46827  26.17067
     107.50   3.031409     0.7784E-08 -10.34186  25.85464
     108.50   3.035430     0.1040E-07 -10.21613  25.54033
     109.50   3.039414     0.1301E-07 -10.11886  25.29716
     110.50   3.043362     0.8338E-07  -9.31197  23.27992
     111.50   3.047275     0.1545E-06  -9.04426  22.61065
     112.50   3.051152     0.2353E-06  -8.86146  22.15364
     113.50   3.054996     0.3572E-06  -8.68019  21.70048
     114.50   3.058805     0.4727E-06  -8.55848  21.39620
     115.50   3.062582     0.5415E-06  -8.49943  21.24858
     116.50   3.066326     0.7181E-06  -8.37685  20.94213
     117.50   3.070038     0.9091E-06  -8.27443  20.68608
     118.50   3.073718     0.9373E-06  -8.26119  20.65298
     119.50   3.077368     0.6901E-06  -8.39415  20.98538
     120.50   3.080987     0.6334E-06  -8.43134  21.07835
     121.50   3.084576     0.1245E-06  -9.13785  22.84462
     122.50   3.088136     0.8331E-06  -8.31234  20.78086
     123.50   3.091667     0.2105E-05  -7.90982  19.77456
     124.50   3.095169     0.3507E-05  -7.68816  19.22040
     125.50   3.098644     0.4677E-05  -7.56309  18.90773
     126.50   3.102091     0.5168E-05  -7.51971  18.79927
     127.50   3.105510     0.6699E-05  -7.40704  18.51759
     128.50   3.108903     0.8158E-05  -7.32147  18.30368
     129.50   3.112270     0.9887E-05  -7.23796  18.09491
     130.50   3.115611     0.1063E-04  -7.20648  18.01620
     131.50   3.118926     0.1348E-04  -7.10326  17.75814
     132.50   3.122216     0.1457E-04  -7.06950  17.67374
     133.50   3.125481     0.1626E-04  -7.02198  17.55496
     134.50   3.128722     0.1918E-04  -6.95022  17.37556
     135.50   3.131939     0.2194E-04  -6.89174  17.22935
     136.50   3.135133     0.2392E-04  -6.85421  17.13552
     137.50   3.138303     0.2574E-04  -6.82250  17.05626
     138.50   3.141450     0.2815E-04  -6.78357  16.95892
     139.50   3.144574     0.3182E-04  -6.73031  16.82577
     140.50   3.147676     0.3785E-04  -6.65494  16.63735
     141.50   3.150756     0.4284E-04  -6.60121  16.50304
     142.50   3.153815     0.4842E-04  -6.54800  16.37001
     143.50   3.156852     0.5649E-04  -6.48105  16.20262
     144.20   3.158965     0.7313E-04  -6.36894  15.92236
     144.70   3.160469     0.6560E-04  -6.41612  16.04031
     145.50   3.162863     0.7741E-04  -6.34426  15.86066
     146.50   3.165838     0.9586E-04  -6.25143  15.62856
     147.50   3.168792     0.1085E-03  -6.19769  15.49423
     148.50   3.171726     0.1170E-03  -6.16501  15.41252
     149.50   3.174641     0.1525E-03  -6.04989  15.12473
     150.50   3.177536     0.1835E-03  -5.96948  14.92369
     151.20   3.179552     0.1425E-03  -6.07936  15.19839
     151.70   3.180986     0.1781E-03  -5.98250  14.95626
     152.50   3.183270     0.3714E-03  -5.66326  14.15816
     153.50   3.186108     0.5685E-03  -5.47830  13.69576
     154.50   3.188928     0.4847E-03  -5.54761  13.86903
     155.50   3.191730     0.7381E-03  -5.36496  13.41241
     156.50   3.194514     0.7012E-03  -5.38722  13.46804
     157.50   3.197281     0.1195E-02  -5.15561  12.88904
     158.50   3.200029     0.1435E-02  -5.07613  12.69034
     159.50   3.202761     0.1665E-02  -5.01158  12.52894
     160.50   3.205475     0.1777E-02  -4.98329  12.45822
     161.50   3.208173     0.1994E-02  -4.93332  12.33329
     162.50   3.210853     0.2184E-02  -4.89375  12.23438
     163.50   3.213518     0.2577E-02  -4.82188  12.05471
     164.50   3.216166     0.3537E-02  -4.68446  11.71116
     165.50   3.218798     0.2312E-02  -4.86911  12.17278
     166.50   3.221414     0.4039E-02  -4.62674  11.56686
     167.20   3.223236     0.2927E-02  -4.76657  11.91642
     167.70   3.224533     0.1105E-01  -4.18963  10.47407
     168.50   3.226600     0.1164E-01  -4.16722  10.41804
     169.50   3.229170     0.1351E-01  -4.10226  10.25566
     170.50   3.231725     0.1567E-01  -4.03808  10.09520
     171.50   3.234264     0.1958E-01  -3.94120   9.85299
     172.50   3.236789     0.2420E-01  -3.84929   9.62323
     173.50   3.239300     0.3172E-01  -3.73168   9.32921
     174.50   3.241796     0.4026E-01  -3.62815   9.07039
     175.50   3.244277     0.5931E-01  -3.45990   8.64974
     176.50   3.246745     0.4693E-01  -3.56158   8.90394
     177.50   3.249198     0.5744E-01  -3.47386   8.68465
     178.50   3.251638     0.7608E-01  -3.35178   8.37946
     179.50   3.254065     0.1070E+00  -3.20347   8.00866
     180.50   3.256477     0.1079E+00  -3.20016   8.00041
     181.50   3.258877     0.9181E-01  -3.27016   8.17540
     182.50   3.261263     0.1154E+00  -3.17095   7.92736
     183.50   3.263636     0.1188E+00  -3.15814   7.89536
     184.50   3.265996     0.7044E-01  -3.38520   8.46301
     185.50   3.268344     0.1366E+00  -3.09775   7.74437
     186.50   3.270679     0.1792E+00  -2.97967   7.44918
     187.50   3.273001     0.1837E+00  -2.96894   7.42234
     188.50   3.275311     0.1957E+00  -2.94138   7.35344
     189.50   3.277609     0.2623E+00  -2.81422   7.03554
     190.50   3.279895     0.2462E+00  -2.84171   7.10427
     191.50   3.282169     0.2790E+00  -2.78749   6.96874
     192.50   3.284431     0.2372E+00  -2.85802   7.14505
     193.50   3.286681     0.1261E+00  -3.13243   7.83107
     194.50   3.288920     0.3429E+00  -2.69789   6.74473
     195.50   3.291147     0.3597E+00  -2.67710   6.69275
     196.70   3.293804     0.4831E+00  -2.54903   6.37259
     197.60   3.295787     0.4093E+00  -2.62101   6.55253
     198.40   3.297542     0.5270E+00  -2.51123   6.27807
     199.50   3.299943     0.5759E+00  -2.47272   6.18179
     200.50   3.302114     0.5291E+00  -2.50955   6.27387
     201.50   3.304275     0.5818E+00  -2.46830   6.17076
     202.50   3.306425     0.4178E+00  -2.61210   6.53024
     203.50   3.308564     0.6555E+00  -2.41645   6.04112
     204.50   3.310693     0.7703E+00  -2.34637   5.86592
     205.50   3.312812     0.7416E+00  -2.36288   5.90719
     206.50   3.314920     0.7137E+00  -2.37956   5.94890
     207.40   3.316809     0.8121E+00  -2.32345   5.80863
     207.80   3.317646     0.2154E+01  -1.89981   4.74953
     208.50   3.319106     0.2813E+01  -1.78385   4.45963
     209.50   3.321184     0.2532E+01  -1.82952   4.57380
     210.50   3.323252     0.2413E+01  -1.85047   4.62618
     211.50   3.325310     0.2890E+01  -1.77210   4.43025
     212.50   3.327359     0.2422E+01  -1.84889   4.62222
     213.50   3.329398     0.2346E+01  -1.86270   4.65676
     214.50   3.331427     0.3206E+01  -1.72707   4.31769
     215.50   3.333447     0.3093E+01  -1.74261   4.35652
     216.50   3.335458     0.2549E+01  -1.82662   4.56654
     217.50   3.337459     0.2586E+01  -1.82045   4.55112
     218.50   3.339452     0.3637E+01  -1.67235   4.18088
     219.50   3.341434     0.3520E+01  -1.68646   4.21616
     220.50   3.343409     0.3426E+01  -1.69822   4.24554
     221.50   3.345374     0.2463E+01  -1.84151   4.60378
     222.50   3.347330     0.3169E+01  -1.73209   4.33024
     223.50   3.349277     0.4482E+01  -1.58158   3.95395
     224.50   3.351216     0.4234E+01  -1.60628   4.01571
     225.50   3.353147     0.2968E+01  -1.76056   4.40139
     226.50   3.355068     0.2604E+01  -1.81737   4.54343
     227.50   3.356982     0.2853E+01  -1.77771   4.44426
     228.50   3.358886     0.4379E+01  -1.59169   3.97922
     229.50   3.360783     0.3416E+01  -1.69956   4.24889
     230.50   3.362671     0.4465E+01  -1.58326   3.95815
     231.50   3.364551     0.3640E+01  -1.67195   4.17988
     232.50   3.366423     0.2980E+01  -1.75885   4.39714
     233.50   3.368287     0.2439E+01  -1.84586   4.61465
     234.50   3.370143     0.1441E+01  -2.07426   5.18566
     235.50   3.371991     0.3416E+01  -1.69951   4.24876
     236.50   3.373831     0.1690E+01  -2.00515   5.01287
     237.50   3.375664     0.2417E+01  -1.84979   4.62447
     238.50   3.377488     0.1211E+01  -2.14991   5.37477
     239.50   3.379306     0.1651E+01  -2.01522   5.03804
     240.50   3.381115     0.1689E+01  -2.00546   5.01364
     241.50   3.382917     0.2134E+01  -1.90389   4.75972
     242.50   3.384712     0.4331E+01  -1.59649   3.99123
     243.50   3.386499     0.4366E+01  -1.59296   3.98241
     244.50   3.388279     0.5429E+01  -1.49834   3.74584
     245.50   3.390052     0.5855E+01  -1.46552   3.66380
     246.50   3.391817     0.4799E+01  -1.55188   3.87970
     247.50   3.393575     0.4057E+01  -1.62484   4.06209
     248.50   3.395326     0.1856E+01  -1.96457   4.91144
     249.50   3.397071     0.2754E+01  -1.79315   4.48287
     250.50   3.398808     0.4793E+01  -1.55241   3.88102
     251.30   3.400192     0.1611E+01  -2.02597   5.06492
     251.80   3.401056     0.1070E+01  -2.20361   5.50902
     252.50   3.402261     0.1329E+01  -2.10964   5.27411
     253.50   3.403978     0.2996E+01  -1.75657   4.39142
     254.50   3.405688     0.3205E+01  -1.72721   4.31802
     255.50   3.407391     0.6821E+01  -1.39920   3.49801
     256.50   3.409087     0.4737E+01  -1.55757   3.89393
     257.50   3.410777     0.6444E+01  -1.42390   3.55974
     258.50   3.412461     0.5520E+01  -1.49110   3.72776
     259.50   3.414137     0.4827E+01  -1.54939   3.87346
     260.50   3.415808     0.3983E+01  -1.63282   4.08204
     261.50   3.417472     0.3486E+01  -1.69069   4.22673
     262.50   3.419129     0.5169E+01  -1.51963   3.79907
     263.50   3.420781     0.1018E+02  -1.22512   3.06280
     264.50   3.422426     0.1405E+02  -1.08522   2.71306
     265.50   3.424065     0.2029E+02  -0.92568   2.31420
     266.50   3.425697     0.1255E+02  -1.13431   2.83577
     267.50   3.427324     0.1435E+02  -1.07607   2.69018
     268.50   3.428944     0.1705E+02  -1.00141   2.50352
     269.50   3.430559     0.1165E+02  -1.16654   2.91636
     270.50   3.432167     0.1484E+02  -1.06167   2.65417
     271.50   3.433770     0.1019E+02  -1.22483   3.06207
     272.50   3.435366     0.7570E+01  -1.35393   3.38482
     273.50   3.436957     0.1022E+02  -1.22353   3.05882
     274.50   3.438542     0.5336E+01  -1.50581   3.76452
     275.50   3.440122     0.7908E+01  -1.33497   3.33743
     276.50   3.441695     0.1093E+02  -1.19450   2.98624
     277.50   3.443263     0.1159E+02  -1.16900   2.92250
     278.50   3.444825     0.6171E+01  -1.44269   3.60672
     279.50   3.446382     0.2393E+01  -1.85405   4.63513
     280.50   3.447933     0.3018E+01  -1.75333   4.38332
     281.50   3.449478     0.9858E+01  -1.23926   3.09815
     282.50   3.451018     0.1512E+02  -1.05344   2.63360
     283.50   3.452553     0.1382E+02  -1.09253   2.73132
     284.50   3.454082     0.8900E+01  -1.28366   3.20914
     285.50   3.455606     0.4305E+01  -1.59905   3.99763
     286.50   3.457125     0.1331E+02  -1.10875   2.77187
     287.50   3.458638     0.1932E+02  -0.94698   2.36746
     288.50   3.460146     0.1748E+02  -0.99055   2.47639
     289.50   3.461648     0.2228E+02  -0.88512   2.21281
     291.00   3.463893     0.3124E+02  -0.73830   1.84575
     293.00   3.466868     0.2825E+02  -0.78201   1.95503
     295.00   3.469822     0.2694E+02  -0.80265   2.00661
     297.00   3.472756     0.2829E+02  -0.78138   1.95344
     299.00   3.475671     0.2954E+02  -0.76269   1.90672
     301.00   3.478566     0.2978E+02  -0.75913   1.89783
     303.00   3.481443     0.3210E+02  -0.72657   1.81643
     305.00   3.484300     0.3363E+02  -0.70635   1.76586
     307.00   3.487138     0.3444E+02  -0.69605   1.74012
     309.00   3.489959     0.3164E+02  -0.73281   1.83202
     311.00   3.492760     0.3714E+02  -0.66317   1.65792
     313.00   3.495544     0.3387E+02  -0.70328   1.75820
     315.00   3.498311     0.3342E+02  -0.70909   1.77272
     317.00   3.501059     0.3795E+02  -0.65386   1.63464
     319.00   3.503791     0.3298E+02  -0.71484   1.78709
     321.00   3.506505     0.3675E+02  -0.66784   1.66959
     323.00   3.509202     0.3153E+02  -0.73430   1.83575
     325.00   3.511883     0.4473E+02  -0.58248   1.45621
     327.00   3.514548     0.5210E+02  -0.51625   1.29063
     329.00   3.517196     0.5094E+02  -0.52599   1.31497
     331.00   3.519828     0.4721E+02  -0.55903   1.39759
     333.00   3.522444     0.4877E+02  -0.54491   1.36227
     335.00   3.525045     0.4716E+02  -0.55946   1.39865
     337.00   3.527630     0.3414E+02  -0.69980   1.74951
     339.00   3.530200     0.4029E+02  -0.62787   1.56969
     341.00   3.532754     0.4198E+02  -0.60996   1.52489
     343.00   3.535294     0.4557E+02  -0.57438   1.43594
     345.00   3.537819     0.4915E+02  -0.54155   1.35387
     347.00   3.540329     0.5128E+02  -0.52308   1.30769
     349.00   3.542825     0.5728E+02  -0.47507   1.18766
     351.00   3.545307     0.6091E+02  -0.44835   1.12088
     353.00   3.547775     0.5475E+02  -0.49467   1.23667
     355.00   3.550228     0.6254E+02  -0.43687   1.09218
     357.00   3.552668     0.4594E+02  -0.57089   1.42724
     359.00   3.555094     0.4698E+02  -0.56114   1.40284
     361.00   3.557507     0.5794E+02  -0.47005   1.17513
     363.00   3.559907     0.5957E+02  -0.45803   1.14508
     364.00   3.561101     0.6107E+02  -0.44724   1.11810
     365.00   3.562293     0.6603E+02  -0.41333   1.03331
     367.00   3.564666     0.7035E+02  -0.38577   0.96441
     369.00   3.567026     0.6349E+02  -0.43035   1.07588
     371.00   3.569374     0.6689E+02  -0.40767   1.01918
     373.00   3.571709     0.4449E+02  -0.58482   1.46204
     375.00   3.574031     0.5088E+02  -0.52653   1.31633
     377.00   3.576341     0.6615E+02  -0.41253   1.03134
     379.00   3.578639     0.6823E+02  -0.39908   0.99770
     381.00   3.580925     0.6480E+02  -0.42150   1.05374
     383.00   3.583199     0.3685E+02  -0.66663   1.66657
     385.00   3.585461     0.5187E+02  -0.51815   1.29537
     387.00   3.587711     0.5090E+02  -0.52633   1.31582
     389.00   3.589950     0.6205E+02  -0.44028   1.10070
     391.00   3.592177     0.7484E+02  -0.35893   0.89732
     393.00   3.594393     0.3639E+02  -0.67202   1.68006
     395.00   3.596597     0.6561E+02  -0.41610   1.04025
     397.00   3.598790     0.4514E+02  -0.57853   1.44632
     399.00   3.600973     0.9657E+02  -0.24822   0.62056
     401.00   3.603144     0.1059E+03  -0.20805   0.52011
     403.00   3.605305     0.1045E+03  -0.21379   0.53447
     405.00   3.607455     0.1005E+03  -0.23101   0.57752
     407.00   3.609594     0.9525E+02  -0.25420   0.63551
     409.00   3.611723     0.1162E+03  -0.16801   0.42002
     411.00   3.613842     0.1091E+03  -0.19510   0.48775
     413.00   3.615950     0.1073E+03  -0.20237   0.50592
     415.00   3.618048     0.1049E+03  -0.21215   0.53037
     417.00   3.620136     0.1069E+03  -0.20388   0.50970
     419.00   3.622214     0.1038E+03  -0.21673   0.54182
     421.00   3.624282     0.1048E+03  -0.21263   0.53157
     423.00   3.626340     0.9935E+02  -0.23589   0.58973
     425.00   3.628389     0.1048E+03  -0.21251   0.53128
     427.00   3.630428     0.9874E+02  -0.23855   0.59638
     429.00   3.632457     0.9188E+02  -0.26981   0.67451
     431.00   3.634477     0.7863E+02  -0.33748   0.84371
     433.00   3.636488     0.1168E+03  -0.16543   0.41357
     435.00   3.638489     0.1155E+03  -0.17041   0.42603
     437.00   3.640481     0.1252E+03  -0.13558   0.33895
     439.00   3.642465     0.1118E+03  -0.18446   0.46115
     441.00   3.644439     0.1195E+03  -0.15556   0.38889
     443.00   3.646404     0.1302E+03  -0.11857   0.29642
     445.00   3.648360     0.1307E+03  -0.11666   0.29166
     447.00   3.650307     0.1396E+03  -0.08823   0.22056
     449.00   3.652246     0.1436E+03  -0.07600   0.19001
     451.00   3.654176     0.1617E+03  -0.02445   0.06113
     453.00   3.656098     0.1429E+03  -0.07814   0.19535
     455.00   3.658011     0.1498E+03  -0.05742   0.14355
     457.00   3.659916     0.1615E+03  -0.02475   0.06189
     459.00   3.661813     0.1522E+03  -0.05066   0.12664
     461.00   3.663701     0.1574E+03  -0.03610   0.09026
     463.00   3.665581     0.1541E+03  -0.04516   0.11291
     465.00   3.667453     0.1560E+03  -0.04005   0.10012
     467.00   3.669317     0.1624E+03  -0.02235   0.05588
     469.00   3.671173     0.1597E+03  -0.02970   0.07425
     471.00   3.673021     0.1563E+03  -0.03910   0.09775
     473.00   3.674861     0.1611E+03  -0.02607   0.06517
     475.00   3.676694     0.1647E+03  -0.01625   0.04061
     477.00   3.678518     0.1613E+03  -0.02543   0.06357
     479.00   3.680336     0.1624E+03  -0.02234   0.05586
     481.00   3.682145     0.1632E+03  -0.02040   0.05101
     483.00   3.683947     0.1675E+03  -0.00897   0.02243
     485.00   3.685742     0.1608E+03  -0.02684   0.06711
     487.00   3.687529     0.1481E+03  -0.06250   0.15626
     489.00   3.689309     0.1635E+03  -0.01959   0.04898
     491.00   3.691082     0.1646E+03  -0.01668   0.04171
     493.00   3.692847     0.1619E+03  -0.02375   0.05937
     495.00   3.694605     0.1679E+03  -0.00811   0.02027
     497.00   3.696356     0.1628E+03  -0.02127   0.05316
     499.00   3.698101     0.1523E+03  -0.05024   0.12561
     501.00   3.699838     0.1445E+03  -0.07332   0.18329
     503.00   3.701568     0.1539E+03  -0.04591   0.11478
     505.00   3.703291     0.1536E+03  -0.04652   0.11630
     507.00   3.705008     0.1602E+03  -0.02851   0.07127
     509.00   3.706718     0.1525E+03  -0.04989   0.12472
     511.00   3.708421     0.1559E+03  -0.04034   0.10085
     513.00   3.710117     0.1518E+03  -0.05186   0.12964
     515.00   3.711807     0.1465E+03  -0.06710   0.16774
     517.00   3.713490     0.1328E+03  -0.10969   0.27422
     519.00   3.715167     0.1381E+03  -0.09280   0.23200
     521.00   3.716838     0.1491E+03  -0.05969   0.14923
     523.00   3.718502     0.1620E+03  -0.02359   0.05897
     525.00   3.720159     0.1687E+03  -0.00588   0.01471
     527.00   3.721811     0.1495E+03  -0.05844   0.14611
     529.00   3.723456     0.1718E+03   0.00200  -0.00499
     531.00   3.725095     0.1815E+03   0.02591  -0.06477
     533.00   3.726727     0.1616E+03  -0.02467   0.06166
     535.00   3.728354     0.1767E+03   0.01421  -0.03553
     537.00   3.729974     0.1750E+03   0.00990  -0.02475
     539.00   3.731589     0.1719E+03   0.00233  -0.00583
     541.00   3.733197     0.1693E+03  -0.00448   0.01120
     543.00   3.734800     0.1719E+03   0.00212  -0.00530
     545.00   3.736397     0.1750E+03   0.01009  -0.02522
     547.00   3.737987     0.1714E+03   0.00094  -0.00234
     549.00   3.739572     0.1734E+03   0.00587  -0.01469
     551.00   3.741152     0.1710E+03   0.00000   0.00000
     553.00   3.742725     0.1770E+03   0.01482  -0.03705
     555.00   3.744293     0.1800E+03   0.02211  -0.05528
     557.00   3.745855     0.1758E+03   0.01187  -0.02967
     559.00   3.747412     0.1717E+03   0.00166  -0.00415
     561.00   3.748963     0.1768E+03   0.01433  -0.03584
