age =    9.0    [Fe/H] =   -0.25

wavele(nm) log wave(A)   Hlam       log(Hlam/Hlam(V))  Hlam(mag(V)) 
      89.50   2.951823     0.1427E-12 -15.18079  37.95196
      90.50   2.956649     0.2942E-12 -14.86651  37.16627
      91.50   2.961421     0.4601E-12 -14.67230  36.68074
      92.50   2.966142     0.1897E-09 -12.05699  30.14248
      93.50   2.970812     0.2617E-09 -11.91736  29.79339
      94.50   2.975432     0.3693E-09 -11.76779  29.41948
      95.50   2.980003     0.5467E-09 -11.59736  28.99340
      96.50   2.984527     0.7744E-09 -11.44616  28.61540
      97.50   2.989005     0.1012E-08 -11.32986  28.32466
      98.50   2.993436     0.1411E-08 -11.18573  27.96432
      99.50   2.997823     0.1883E-08 -11.06027  27.65067
     100.50   3.002166     0.2725E-08 -10.89973  27.24932
     101.50   3.006466     0.3624E-08 -10.77592  26.93980
     102.50   3.010724     0.4091E-08 -10.72331  26.80828
     103.50   3.014940     0.6549E-08 -10.51897  26.29742
     104.50   3.019116     0.8841E-08 -10.38862  25.97154
     105.50   3.023252     0.1125E-07 -10.28385  25.70963
     106.50   3.027350     0.1473E-07 -10.16684  25.41711
     107.50   3.031409     0.1956E-07 -10.04368  25.10919
     108.50   3.035430     0.2585E-07  -9.92270  24.80674
     109.50   3.039414     0.3228E-07  -9.82618  24.56545
     110.50   3.043362     0.2472E-06  -8.94206  22.35516
     111.50   3.047275     0.4762E-06  -8.65735  21.64337
     112.50   3.051152     0.7251E-06  -8.47474  21.18685
     113.50   3.054996     0.1088E-05  -8.29846  20.74614
     114.50   3.058805     0.1431E-05  -8.17936  20.44840
     115.50   3.062582     0.1617E-05  -8.12634  20.31585
     116.50   3.066326     0.2143E-05  -8.00408  20.01020
     117.50   3.070038     0.2682E-05  -7.90662  19.76656
     118.50   3.073718     0.2711E-05  -7.90194  19.75484
     119.50   3.077368     0.1882E-05  -8.06040  20.15101
     120.50   3.080987     0.1700E-05  -8.10464  20.26160
     121.50   3.084576     0.3068E-06  -8.84835  22.12087
     122.50   3.088136     0.2205E-05  -7.99174  19.97936
     123.50   3.091667     0.5794E-05  -7.57217  18.93042
     124.50   3.095169     0.1031E-04  -7.32201  18.30503
     125.50   3.098644     0.1418E-04  -7.18331  17.95828
     126.50   3.102091     0.1561E-04  -7.14167  17.85417
     127.50   3.105510     0.2071E-04  -7.01892  17.54730
     128.50   3.108903     0.2590E-04  -6.92187  17.30469
     129.50   3.112270     0.3141E-04  -6.83810  17.09524
     130.50   3.115611     0.3354E-04  -6.80955  17.02387
     131.50   3.118926     0.4322E-04  -6.69942  16.74855
     132.50   3.122216     0.4749E-04  -6.65852  16.64630
     133.50   3.125481     0.5310E-04  -6.61002  16.52505
     134.50   3.128722     0.6273E-04  -6.53764  16.34409
     135.50   3.131939     0.7102E-04  -6.48374  16.20934
     136.50   3.135133     0.7811E-04  -6.44245  16.10613
     137.50   3.138303     0.8382E-04  -6.41180  16.02950
     138.50   3.141450     0.9126E-04  -6.37485  15.93713
     139.50   3.144574     0.1032E-03  -6.32149  15.80371
     140.50   3.147676     0.1216E-03  -6.25007  15.62517
     141.50   3.150756     0.1367E-03  -6.19931  15.49828
     142.50   3.153815     0.1531E-03  -6.15022  15.37556
     143.50   3.156852     0.1763E-03  -6.08881  15.22203
     144.20   3.158965     0.2264E-03  -5.98033  14.95082
     144.70   3.160469     0.2051E-03  -6.02325  15.05813
     145.50   3.162863     0.2414E-03  -5.95242  14.88105
     146.50   3.165838     0.2917E-03  -5.87019  14.67548
     147.50   3.168792     0.3278E-03  -5.81948  14.54869
     148.50   3.171726     0.3547E-03  -5.78524  14.46311
     149.50   3.174641     0.4578E-03  -5.67450  14.18625
     150.50   3.177536     0.5454E-03  -5.59840  13.99601
     151.20   3.179552     0.4364E-03  -5.69522  14.23805
     151.70   3.180986     0.5328E-03  -5.60859  14.02147
     152.50   3.183270     0.1040E-02  -5.31820  13.29549
     153.50   3.186108     0.1528E-02  -5.15113  12.87783
     154.50   3.188928     0.1347E-02  -5.20570  13.01426
     155.50   3.191730     0.1955E-02  -5.04400  12.61000
     156.50   3.194514     0.1864E-02  -5.06475  12.66188
     157.50   3.197281     0.3053E-02  -4.85038  12.12595
     158.50   3.200029     0.3641E-02  -4.77388  11.93471
     159.50   3.202761     0.4214E-02  -4.71049  11.77622
     160.50   3.205475     0.4463E-02  -4.68550  11.71374
     161.50   3.208173     0.4992E-02  -4.63688  11.59220
     162.50   3.210853     0.5377E-02  -4.60458  11.51144
     163.50   3.213518     0.6387E-02  -4.52984  11.32459
     164.50   3.216166     0.8589E-02  -4.40120  11.00299
     165.50   3.218798     0.5647E-02  -4.58334  11.45835
     166.50   3.221414     0.9755E-02  -4.34590  10.86475
     167.20   3.223236     0.7094E-02  -4.48423  11.21058
     167.70   3.224533     0.2968E-01  -3.86263   9.65658
     168.50   3.226600     0.3057E-01  -3.84981   9.62453
     169.50   3.229170     0.3382E-01  -3.80591   9.51478
     170.50   3.231725     0.4041E-01  -3.72861   9.32153
     171.50   3.234264     0.5588E-01  -3.58790   8.96975
     172.50   3.236789     0.6819E-01  -3.50141   8.75352
     173.50   3.239300     0.9062E-01  -3.37791   8.44478
     174.50   3.241796     0.1088E+00  -3.29847   8.24618
     175.50   3.244277     0.1618E+00  -3.12602   7.81506
     176.50   3.246745     0.1240E+00  -3.24155   8.10388
     177.50   3.249198     0.1554E+00  -3.14372   7.85931
     178.50   3.251638     0.2009E+00  -3.03225   7.58063
     179.50   3.254065     0.2921E+00  -2.86966   7.17415
     180.50   3.256477     0.2811E+00  -2.88631   7.21576
     181.50   3.258877     0.2447E+00  -2.94655   7.36637
     182.50   3.261263     0.2968E+00  -2.86262   7.15656
     183.50   3.263636     0.3035E+00  -2.85294   7.13234
     184.50   3.265996     0.1801E+00  -3.07973   7.69932
     185.50   3.268344     0.3470E+00  -2.79476   6.98690
     186.50   3.270679     0.4646E+00  -2.66802   6.67004
     187.50   3.273001     0.4663E+00  -2.66644   6.66610
     188.50   3.275311     0.4936E+00  -2.64176   6.60441
     189.50   3.277609     0.6535E+00  -2.51988   6.29970
     190.50   3.279895     0.6103E+00  -2.54957   6.37393
     191.50   3.282169     0.6883E+00  -2.49735   6.24337
     192.50   3.284431     0.5688E+00  -2.58020   6.45051
     193.50   3.286681     0.2844E+00  -2.88126   7.20316
     194.50   3.288920     0.8254E+00  -2.41845   6.04612
     195.50   3.291147     0.8692E+00  -2.39602   5.99004
     196.70   3.293804     0.1145E+01  -2.27628   5.69070
     197.60   3.295787     0.9649E+00  -2.35065   5.87663
     198.40   3.297542     0.1237E+01  -2.24269   5.60673
     199.50   3.299943     0.1341E+01  -2.20761   5.51903
     200.50   3.302114     0.1217E+01  -2.24972   5.62431
     201.50   3.304275     0.1330E+01  -2.21123   5.52806
     202.50   3.306425     0.9649E+00  -2.35068   5.87669
     203.50   3.308564     0.1506E+01  -2.15742   5.39356
     204.50   3.310693     0.1760E+01  -2.08973   5.22433
     205.50   3.312812     0.1677E+01  -2.11048   5.27621
     206.50   3.314920     0.1596E+01  -2.13197   5.32993
     207.40   3.316809     0.1849E+01  -2.06827   5.17067
     207.80   3.317646     0.4380E+01  -1.69371   4.23427
     208.50   3.319106     0.5577E+01  -1.58875   3.97188
     209.50   3.321184     0.5041E+01  -1.63265   4.08163
     210.50   3.323252     0.4737E+01  -1.65960   4.14900
     211.50   3.325310     0.5578E+01  -1.58862   3.97156
     212.50   3.327359     0.4686E+01  -1.66437   4.16092
     213.50   3.329398     0.4455E+01  -1.68630   4.21576
     214.50   3.331427     0.6046E+01  -1.55366   3.88414
     215.50   3.333447     0.5924E+01  -1.56251   3.90627
     216.50   3.335458     0.4909E+01  -1.64414   4.11035
     217.50   3.337459     0.5021E+01  -1.63436   4.08589
     218.50   3.339452     0.6791E+01  -1.50321   3.75802
     219.50   3.341434     0.6688E+01  -1.50985   3.77462
     220.50   3.343409     0.6435E+01  -1.52658   3.81646
     221.50   3.345374     0.4687E+01  -1.66426   4.16065
     222.50   3.347330     0.5821E+01  -1.57016   3.92541
     223.50   3.349277     0.8099E+01  -1.42670   3.56676
     224.50   3.351216     0.7633E+01  -1.45246   3.63115
     225.50   3.353147     0.5426E+01  -1.60066   4.00166
     226.50   3.355068     0.4895E+01  -1.64541   4.11354
     227.50   3.356982     0.5409E+01  -1.60204   4.00509
     228.50   3.358886     0.7907E+01  -1.43714   3.59286
     229.50   3.360783     0.6284E+01  -1.53693   3.84232
     230.50   3.362671     0.8076E+01  -1.42796   3.56989
     231.50   3.364551     0.6652E+01  -1.51216   3.78039
     232.50   3.366423     0.5328E+01  -1.60860   4.02150
     233.50   3.368287     0.4336E+01  -1.69804   4.24511
     234.50   3.370143     0.2567E+01  -1.92569   4.81422
     235.50   3.371991     0.6093E+01  -1.55029   3.87573
     236.50   3.373831     0.2984E+01  -1.86028   4.65071
     237.50   3.375664     0.4318E+01  -1.69986   4.24965
     238.50   3.377488     0.2101E+01  -2.01268   5.03170
     239.50   3.379306     0.2902E+01  -1.87246   4.68114
     240.50   3.381115     0.2935E+01  -1.86748   4.66869
     241.50   3.382917     0.3772E+01  -1.75855   4.39637
     242.50   3.384712     0.7544E+01  -1.45754   3.64385
     243.50   3.386499     0.7563E+01  -1.45643   3.64107
     244.50   3.388279     0.9312E+01  -1.36610   3.41526
     245.50   3.390052     0.9972E+01  -1.33634   3.34085
     246.50   3.391817     0.8411E+01  -1.41027   3.52568
     247.50   3.393575     0.7160E+01  -1.48023   3.70057
     248.50   3.395326     0.3635E+01  -1.77459   4.43648
     249.50   3.397071     0.5034E+01  -1.63324   4.08309
     250.50   3.398808     0.8617E+01  -1.39976   3.49940
     251.30   3.400192     0.2922E+01  -1.86946   4.67366
     251.80   3.401056     0.1927E+01  -2.05031   5.12579
     252.50   3.402261     0.2415E+01  -1.95222   4.88056
     253.50   3.403978     0.5095E+01  -1.62798   4.06995
     254.50   3.405688     0.5519E+01  -1.59328   3.98319
     255.50   3.407391     0.1093E+02  -1.29638   3.24095
     256.50   3.409087     0.7771E+01  -1.44467   3.61168
     257.50   3.410777     0.1034E+02  -1.32066   3.30164
     258.50   3.412461     0.8933E+01  -1.38414   3.46034
     259.50   3.414137     0.7813E+01  -1.44230   3.60575
     260.50   3.415808     0.6475E+01  -1.52388   3.80970
     261.50   3.417472     0.5656E+01  -1.58261   3.95654
     262.50   3.419129     0.8396E+01  -1.41105   3.52761
     263.50   3.420781     0.1570E+02  -1.13915   2.84788
     264.50   3.422426     0.2174E+02  -0.99794   2.49484
     265.50   3.424065     0.3017E+02  -0.85562   2.13904
     266.50   3.425697     0.1920E+02  -1.05194   2.62985
     267.50   3.427324     0.2200E+02  -0.99273   2.48182
     268.50   3.428944     0.2561E+02  -0.92666   2.31665
     269.50   3.430559     0.1811E+02  -1.07720   2.69300
     270.50   3.432167     0.2259E+02  -0.98113   2.45282
     271.50   3.433770     0.1591E+02  -1.13352   2.83380
     272.50   3.435366     0.1260E+02  -1.23469   3.08672
     273.50   3.436957     0.1637E+02  -1.12120   2.80300
     274.50   3.438542     0.8445E+01  -1.40852   3.52131
     275.50   3.440122     0.1230E+02  -1.24523   3.11309
     276.50   3.441695     0.1675E+02  -1.11122   2.77806
     277.50   3.443263     0.1794E+02  -1.08133   2.70331
     278.50   3.444825     0.9733E+01  -1.34690   3.36724
     279.50   3.446382     0.3644E+01  -1.77353   4.43382
     280.50   3.447933     0.4635E+01  -1.66913   4.17282
     281.50   3.449478     0.1548E+02  -1.14533   2.86333
     282.50   3.451018     0.2363E+02  -0.96168   2.40420
     283.50   3.452553     0.2208E+02  -0.99120   2.47801
     284.50   3.454082     0.1533E+02  -1.14951   2.87379
     285.50   3.455606     0.7737E+01  -1.44659   3.61647
     286.50   3.457125     0.2200E+02  -0.99280   2.48199
     287.50   3.458638     0.2975E+02  -0.86164   2.15409
     288.50   3.460146     0.2676E+02  -0.90762   2.26906
     289.50   3.461648     0.3277E+02  -0.81972   2.04929
     291.00   3.463893     0.4484E+02  -0.68350   1.70875
     293.00   3.466868     0.4065E+02  -0.72610   1.81526
     295.00   3.469822     0.3906E+02  -0.74341   1.85852
     297.00   3.472756     0.4123E+02  -0.71991   1.79977
     299.00   3.475671     0.4280E+02  -0.70364   1.75910
     301.00   3.478566     0.4357E+02  -0.69595   1.73988
     303.00   3.481443     0.4617E+02  -0.67082   1.67704
     305.00   3.484300     0.4833E+02  -0.65090   1.62726
     307.00   3.487138     0.4915E+02  -0.64365   1.60913
     309.00   3.489959     0.4607E+02  -0.67171   1.67927
     311.00   3.492760     0.5248E+02  -0.61512   1.53780
     313.00   3.495544     0.4860E+02  -0.64852   1.62129
     315.00   3.498311     0.4775E+02  -0.65614   1.64036
     317.00   3.501059     0.5356E+02  -0.60631   1.51579
     319.00   3.503791     0.4689E+02  -0.66408   1.66020
     321.00   3.506505     0.5220E+02  -0.61745   1.54361
     323.00   3.509202     0.4494E+02  -0.68254   1.70636
     325.00   3.511883     0.6181E+02  -0.54409   1.36022
     327.00   3.514548     0.7133E+02  -0.48185   1.20462
     329.00   3.517196     0.6969E+02  -0.49194   1.22984
     331.00   3.519828     0.6561E+02  -0.51817   1.29542
     333.00   3.522444     0.6740E+02  -0.50651   1.26627
     335.00   3.525045     0.6546E+02  -0.51915   1.29787
     337.00   3.527630     0.4910E+02  -0.64408   1.61019
     339.00   3.530200     0.5709E+02  -0.57860   1.44651
     341.00   3.532754     0.5914E+02  -0.56325   1.40812
     343.00   3.535294     0.6345E+02  -0.53267   1.33169
     345.00   3.537819     0.6801E+02  -0.50259   1.25646
     347.00   3.540329     0.7054E+02  -0.48673   1.21681
     349.00   3.542825     0.7784E+02  -0.44396   1.10989
     351.00   3.545307     0.8226E+02  -0.41993   1.04982
     353.00   3.547775     0.7455E+02  -0.46270   1.15674
     355.00   3.550228     0.8469E+02  -0.40732   1.01829
     357.00   3.552668     0.6398E+02  -0.52911   1.32279
     359.00   3.555094     0.6504E+02  -0.52197   1.30492
     361.00   3.557507     0.7832E+02  -0.44124   1.10310
     363.00   3.559907     0.8034E+02  -0.43020   1.07551
     364.00   3.561101     0.8222E+02  -0.42016   1.05039
     365.00   3.562293     0.8898E+02  -0.38586   0.96466
     367.00   3.564666     0.9360E+02  -0.36384   0.90959
     369.00   3.567026     0.8526E+02  -0.40440   1.01099
     371.00   3.569374     0.9038E+02  -0.37906   0.94765
     373.00   3.571709     0.6322E+02  -0.53425   1.33562
     375.00   3.574031     0.7169E+02  -0.47965   1.19912
     377.00   3.576341     0.9031E+02  -0.37940   0.94850
     379.00   3.578639     0.9345E+02  -0.36457   0.91142
     381.00   3.580925     0.9044E+02  -0.37879   0.94698
     383.00   3.583199     0.5428E+02  -0.60049   1.50124
     385.00   3.585461     0.7519E+02  -0.45896   1.14740
     387.00   3.587711     0.7430E+02  -0.46413   1.16034
     389.00   3.589950     0.8613E+02  -0.40000   0.99999
     391.00   3.592177     0.1025E+03  -0.32430   0.81076
     393.00   3.594393     0.5129E+02  -0.62508   1.56270
     395.00   3.596597     0.8996E+02  -0.38110   0.95274
     397.00   3.598790     0.6218E+02  -0.54146   1.35366
     399.00   3.600973     0.1288E+03  -0.22514   0.56284
     401.00   3.603144     0.1406E+03  -0.18710   0.46775
     403.00   3.605305     0.1394E+03  -0.19083   0.47707
     405.00   3.607455     0.1342E+03  -0.20734   0.51834
     407.00   3.609594     0.1279E+03  -0.22817   0.57042
     409.00   3.611723     0.1527E+03  -0.15116   0.37791
     411.00   3.613842     0.1434E+03  -0.17846   0.44614
     413.00   3.615950     0.1426E+03  -0.18089   0.45223
     415.00   3.618048     0.1402E+03  -0.18832   0.47081
     417.00   3.620136     0.1424E+03  -0.18177   0.45442
     419.00   3.622214     0.1386E+03  -0.19350   0.48375
     421.00   3.624282     0.1399E+03  -0.18925   0.47312
     423.00   3.626340     0.1334E+03  -0.20988   0.52470
     425.00   3.628389     0.1400E+03  -0.18912   0.47279
     427.00   3.630428     0.1323E+03  -0.21350   0.53374
     429.00   3.632457     0.1233E+03  -0.24403   0.61007
     431.00   3.634477     0.1059E+03  -0.31028   0.77571
     433.00   3.636488     0.1532E+03  -0.14991   0.37478
     435.00   3.638489     0.1505E+03  -0.15762   0.39404
     437.00   3.640481     0.1641E+03  -0.12012   0.30031
     439.00   3.642465     0.1477E+03  -0.16564   0.41411
     441.00   3.644439     0.1572E+03  -0.13881   0.34702
     443.00   3.646404     0.1699E+03  -0.10503   0.26256
     445.00   3.648360     0.1704E+03  -0.10371   0.25928
     447.00   3.650307     0.1811E+03  -0.07727   0.19317
     449.00   3.652246     0.1858E+03  -0.06620   0.16549
     451.00   3.654176     0.2080E+03  -0.01705   0.04261
     453.00   3.656098     0.1848E+03  -0.06835   0.17087
     455.00   3.658011     0.1931E+03  -0.04941   0.12353
     457.00   3.659916     0.2077E+03  -0.01776   0.04440
     459.00   3.661813     0.1960E+03  -0.04298   0.10745
     461.00   3.663701     0.2024E+03  -0.02892   0.07231
     463.00   3.665581     0.1982E+03  -0.03805   0.09512
     465.00   3.667453     0.2006E+03  -0.03274   0.08185
     467.00   3.669317     0.2084E+03  -0.01615   0.04039
     469.00   3.671173     0.2050E+03  -0.02334   0.05836
     471.00   3.673021     0.2005E+03  -0.03299   0.08248
     473.00   3.674861     0.2068E+03  -0.01956   0.04889
     475.00   3.676694     0.2115E+03  -0.00990   0.02475
     477.00   3.678518     0.2076E+03  -0.01791   0.04477
     479.00   3.680336     0.2087E+03  -0.01563   0.03907
     481.00   3.682145     0.2092E+03  -0.01464   0.03660
     483.00   3.683947     0.2145E+03  -0.00380   0.00951
     485.00   3.685742     0.2051E+03  -0.02314   0.05785
     487.00   3.687529     0.1883E+03  -0.06037   0.15092
     489.00   3.689309     0.2090E+03  -0.01507   0.03767
     491.00   3.691082     0.2102E+03  -0.01250   0.03125
     493.00   3.692847     0.2069E+03  -0.01930   0.04826
     495.00   3.694605     0.2146E+03  -0.00353   0.00881
     497.00   3.696356     0.2088E+03  -0.01546   0.03865
     499.00   3.698101     0.1955E+03  -0.04390   0.10974
     501.00   3.699838     0.1859E+03  -0.06583   0.16458
     503.00   3.701568     0.1976E+03  -0.03929   0.09823
     505.00   3.703291     0.1975E+03  -0.03964   0.09910
     507.00   3.705008     0.2057E+03  -0.02194   0.05486
     509.00   3.706718     0.1960E+03  -0.04291   0.10728
     511.00   3.708421     0.2002E+03  -0.03367   0.08418
     513.00   3.710117     0.1950E+03  -0.04519   0.11298
     515.00   3.711807     0.1885E+03  -0.05978   0.14945
     517.00   3.713490     0.1722E+03  -0.09906   0.24764
     519.00   3.715167     0.1783E+03  -0.08388   0.20970
     521.00   3.716838     0.1913E+03  -0.05346   0.13365
     523.00   3.718502     0.2061E+03  -0.02098   0.05245
     525.00   3.720159     0.2141E+03  -0.00445   0.01112
     527.00   3.721811     0.1907E+03  -0.05482   0.13705
     529.00   3.723456     0.2176E+03   0.00261  -0.00653
     531.00   3.725095     0.2293E+03   0.02527  -0.06317
     533.00   3.726727     0.2050E+03  -0.02334   0.05835
     535.00   3.728354     0.2235E+03   0.01405  -0.03512
     537.00   3.729974     0.2214E+03   0.01007  -0.02517
     539.00   3.731589     0.2175E+03   0.00241  -0.00602
     541.00   3.733197     0.2141E+03  -0.00449   0.01122
     543.00   3.734800     0.2175E+03   0.00223  -0.00557
     545.00   3.736397     0.2217E+03   0.01054  -0.02634
     547.00   3.737987     0.2168E+03   0.00092  -0.00231
     549.00   3.739572     0.2190E+03   0.00537  -0.01343
     551.00   3.741152     0.2163E+03   0.00000   0.00000
     553.00   3.742725     0.2232E+03   0.01362  -0.03406
     555.00   3.744293     0.2268E+03   0.02058  -0.05146
     557.00   3.745855     0.2216E+03   0.01050  -0.02625
     559.00   3.747412     0.2168E+03   0.00083  -0.00207
     561.00   3.748963     0.2229E+03   0.01306  -0.03266
