age =   13.0    [Fe/H] =   -0.25

wavele(nm) log wave(A)   Hlam       log(Hlam/Hlam(V))  Hlam(mag(V)) 
      89.50   2.951823     0.8072E-13 -15.29527  38.23818
      90.50   2.956649     0.1702E-12 -14.97115  37.42788
      91.50   2.961421     0.2671E-12 -14.77551  36.93878
      92.50   2.966142     0.4853E-10 -12.51624  31.29061
      93.50   2.970812     0.6711E-10 -12.37544  30.93860
      94.50   2.975432     0.9619E-10 -12.21911  30.54776
      95.50   2.980003     0.1439E-09 -12.04426  30.11065
      96.50   2.984527     0.2077E-09 -11.88488  29.71220
      97.50   2.989005     0.2738E-09 -11.76488  29.41221
      98.50   2.993436     0.3864E-09 -11.61520  29.03800
      99.50   2.997823     0.5242E-09 -11.48274  28.70686
     100.50   3.002166     0.7663E-09 -11.31786  28.29465
     101.50   3.006466     0.1031E-08 -11.18913  27.97282
     102.50   3.010724     0.1166E-08 -11.13547  27.83868
     103.50   3.014940     0.1913E-08 -10.92051  27.30128
     104.50   3.019116     0.2626E-08 -10.78293  26.95732
     105.50   3.023252     0.3328E-08 -10.68000  26.70000
     106.50   3.027350     0.4460E-08 -10.55289  26.38223
     107.50   3.031409     0.5979E-08 -10.42560  26.06400
     108.50   3.035430     0.8013E-08 -10.29846  25.74615
     109.50   3.039414     0.1002E-07 -10.20135  25.50338
     110.50   3.043362     0.5989E-07  -9.42486  23.56216
     111.50   3.047275     0.1092E-06  -9.16404  22.91011
     112.50   3.051152     0.1661E-06  -8.98191  22.45478
     113.50   3.054996     0.2527E-06  -8.79958  21.99896
     114.50   3.058805     0.3350E-06  -8.67716  21.69291
     115.50   3.062582     0.3856E-06  -8.61610  21.54024
     116.50   3.066326     0.5115E-06  -8.49336  21.23339
     117.50   3.070038     0.6498E-06  -8.38944  20.97360
     118.50   3.073718     0.6746E-06  -8.37319  20.93298
     119.50   3.077368     0.5070E-06  -8.49721  21.24302
     120.50   3.080987     0.4682E-06  -8.53182  21.32955
     121.50   3.084576     0.9455E-07  -9.22657  23.06643
     122.50   3.088136     0.6187E-06  -8.41074  21.02685
     123.50   3.091667     0.1539E-05  -8.01495  20.03737
     124.50   3.095169     0.2517E-05  -7.80130  19.50325
     125.50   3.098644     0.3329E-05  -7.67995  19.19987
     126.50   3.102091     0.3686E-05  -7.63573  19.08932
     127.50   3.105510     0.4746E-05  -7.52593  18.81482
     128.50   3.108903     0.5734E-05  -7.44375  18.60938
     129.50   3.112270     0.6952E-05  -7.36015  18.40038
     130.50   3.115611     0.7487E-05  -7.32793  18.31981
     131.50   3.118926     0.9464E-05  -7.22617  18.06542
     132.50   3.122216     0.1019E-04  -7.19418  17.98545
     133.50   3.125481     0.1136E-04  -7.14674  17.86685
     134.50   3.128722     0.1341E-04  -7.07468  17.68670
     135.50   3.131939     0.1540E-04  -7.01476  17.53689
     136.50   3.135133     0.1676E-04  -6.97795  17.44488
     137.50   3.138303     0.1805E-04  -6.94572  17.36430
     138.50   3.141450     0.1977E-04  -6.90616  17.26540
     139.50   3.144574     0.2236E-04  -6.85273  17.13183
     140.50   3.147676     0.2668E-04  -6.77606  16.94016
     141.50   3.150756     0.3027E-04  -6.72129  16.80323
     142.50   3.153815     0.3431E-04  -6.66682  16.66706
     143.50   3.156852     0.4018E-04  -6.59826  16.49564
     144.20   3.158965     0.5211E-04  -6.48530  16.21325
     144.70   3.160469     0.4667E-04  -6.53321  16.33302
     145.50   3.162863     0.5508E-04  -6.46122  16.15305
     146.50   3.165838     0.6866E-04  -6.36551  15.91377
     147.50   3.168792     0.7789E-04  -6.31077  15.77692
     148.50   3.171726     0.8391E-04  -6.27844  15.69611
     149.50   3.174641     0.1096E-03  -6.16229  15.40573
     150.50   3.177536     0.1323E-03  -6.08057  15.20142
     151.20   3.179552     0.1020E-03  -6.19351  15.48376
     151.70   3.180986     0.1282E-03  -6.09422  15.23554
     152.50   3.183270     0.2734E-03  -5.76548  14.41370
     153.50   3.186108     0.4240E-03  -5.57487  13.93717
     154.50   3.188928     0.3585E-03  -5.64772  14.11930
     155.50   3.191730     0.5536E-03  -5.45902  13.64755
     156.50   3.194514     0.5254E-03  -5.48173  13.70431
     157.50   3.197281     0.9080E-03  -5.24417  13.11041
     158.50   3.200029     0.1092E-02  -5.16388  12.90969
     159.50   3.202761     0.1269E-02  -5.09869  12.74672
     160.50   3.205475     0.1356E-02  -5.06986  12.67465
     161.50   3.208173     0.1522E-02  -5.01990  12.54975
     162.50   3.210853     0.1674E-02  -4.97855  12.44637
     163.50   3.213518     0.1974E-02  -4.90694  12.26736
     164.50   3.216166     0.2725E-02  -4.76682  11.91704
     165.50   3.218798     0.1781E-02  -4.95168  12.37920
     166.50   3.221414     0.3120E-02  -4.70803  11.77008
     167.20   3.223236     0.2256E-02  -4.84883  12.12209
     167.70   3.224533     0.8397E-02  -4.27812  10.69530
     168.50   3.226600     0.8924E-02  -4.25167  10.62918
     169.50   3.229170     0.1048E-01  -4.18203  10.45507
     170.50   3.231725     0.1205E-01  -4.12115  10.30289
     171.50   3.234264     0.1461E-01  -4.03772  10.09429
     172.50   3.236789     0.1813E-01  -3.94381   9.85952
     173.50   3.239300     0.2366E-01  -3.82822   9.57055
     174.50   3.241796     0.3048E-01  -3.71823   9.29557
     175.50   3.244277     0.4477E-01  -3.55121   8.87803
     176.50   3.246745     0.3577E-01  -3.64873   9.12183
     177.50   3.249198     0.4348E-01  -3.56398   8.90996
     178.50   3.251638     0.5784E-01  -3.44001   8.60002
     179.50   3.254065     0.8055E-01  -3.29616   8.24040
     180.50   3.256477     0.8206E-01  -3.28811   8.22026
     181.50   3.258877     0.6966E-01  -3.35925   8.39814
     182.50   3.261263     0.8823E-01  -3.25663   8.14157
     183.50   3.263636     0.9090E-01  -3.24369   8.10921
     184.50   3.265996     0.5425E-01  -3.46780   8.66950
     185.50   3.268344     0.1046E+00  -3.18285   7.95712
     186.50   3.270679     0.1365E+00  -3.06718   7.66795
     187.50   3.273001     0.1405E+00  -3.05446   7.63614
     188.50   3.275311     0.1501E+00  -3.02577   7.56443
     189.50   3.277609     0.2016E+00  -2.89764   7.24411
     190.50   3.279895     0.1897E+00  -2.92426   7.31066
     191.50   3.282169     0.2150E+00  -2.86984   7.17459
     192.50   3.284431     0.1845E+00  -2.93633   7.34082
     193.50   3.286681     0.9997E-01  -3.20236   8.00590
     194.50   3.288920     0.2660E+00  -2.77732   6.94331
     195.50   3.291147     0.2789E+00  -2.75677   6.89194
     196.70   3.293804     0.3763E+00  -2.62668   6.56670
     197.60   3.295787     0.3200E+00  -2.69711   6.74278
     198.40   3.297542     0.4112E+00  -2.58817   6.47044
     199.50   3.299943     0.4497E+00  -2.54932   6.37330
     200.50   3.302114     0.4147E+00  -2.58451   6.46127
     201.50   3.304275     0.4566E+00  -2.54269   6.35674
     202.50   3.306425     0.3277E+00  -2.68674   6.71686
     203.50   3.308564     0.5136E+00  -2.49158   6.22895
     204.50   3.310693     0.6042E+00  -2.42108   6.05271
     205.50   3.312812     0.5839E+00  -2.43590   6.08975
     206.50   3.314920     0.5637E+00  -2.45118   6.12795
     207.40   3.316809     0.6382E+00  -2.39728   5.99319
     207.80   3.317646     0.1739E+01  -1.96204   4.90510
     208.50   3.319106     0.2281E+01  -1.84421   4.61051
     209.50   3.321184     0.2051E+01  -1.89026   4.72564
     210.50   3.323252     0.1963E+01  -1.90931   4.77328
     211.50   3.325310     0.2363E+01  -1.82878   4.57195
     212.50   3.327359     0.1983E+01  -1.90489   4.76223
     213.50   3.329398     0.1932E+01  -1.91624   4.79061
     214.50   3.331427     0.2641E+01  -1.78049   4.45122
     215.50   3.333447     0.2534E+01  -1.79848   4.49619
     216.50   3.335458     0.2089E+01  -1.88234   4.70584
     217.50   3.337459     0.2111E+01  -1.87778   4.69446
     218.50   3.339452     0.3001E+01  -1.72492   4.31229
     219.50   3.341434     0.2893E+01  -1.74095   4.35236
     220.50   3.343409     0.2827E+01  -1.75087   4.37717
     221.50   3.345374     0.2029E+01  -1.89499   4.73748
     222.50   3.347330     0.2634E+01  -1.78156   4.45389
     223.50   3.349277     0.3744E+01  -1.62889   4.07222
     224.50   3.351216     0.3540E+01  -1.65327   4.13318
     225.50   3.353147     0.2475E+01  -1.80860   4.52149
     226.50   3.355068     0.2153E+01  -1.86916   4.67290
     227.50   3.356982     0.2353E+01  -1.83066   4.57664
     228.50   3.358886     0.3661E+01  -1.63860   4.09649
     229.50   3.360783     0.2842E+01  -1.74866   4.37166
     230.50   3.362671     0.3726E+01  -1.63102   4.07754
     231.50   3.364551     0.3036E+01  -1.71993   4.29983
     232.50   3.366423     0.2503E+01  -1.80369   4.50923
     233.50   3.368287     0.2062E+01  -1.88801   4.72002
     234.50   3.370143     0.1221E+01  -2.11558   5.28896
     235.50   3.371991     0.2876E+01  -1.74344   4.35859
     236.50   3.373831     0.1434E+01  -2.04568   5.11419
     237.50   3.375664     0.2040E+01  -1.89256   4.73141
     238.50   3.377488     0.1035E+01  -2.18715   5.46788
     239.50   3.379306     0.1405E+01  -2.05461   5.13653
     240.50   3.381115     0.1443E+01  -2.04298   5.10745
     241.50   3.382917     0.1807E+01  -1.94535   4.86339
     242.50   3.384712     0.3671E+01  -1.63749   4.09371
     243.50   3.386499     0.3708E+01  -1.63308   4.08270
     244.50   3.388279     0.4623E+01  -1.53729   3.84324
     245.50   3.390052     0.4995E+01  -1.50371   3.75928
     246.50   3.391817     0.4058E+01  -1.59389   3.98472
     247.50   3.393575     0.3424E+01  -1.66771   4.16927
     248.50   3.395326     0.1522E+01  -2.01974   5.04936
     249.50   3.397071     0.2302E+01  -1.84021   4.60052
     250.50   3.398808     0.4020E+01  -1.59801   3.99502
     251.30   3.400192     0.1359E+01  -2.06892   5.17230
     251.80   3.401056     0.9064E+00  -2.24491   5.61226
     252.50   3.402261     0.1120E+01  -2.15305   5.38262
     253.50   3.403978     0.2567E+01  -1.79277   4.48193
     254.50   3.405688     0.2735E+01  -1.76530   4.41324
     255.50   3.407391     0.5947E+01  -1.42794   3.56985
     256.50   3.409087     0.4104E+01  -1.58906   3.97266
     257.50   3.410777     0.5620E+01  -1.45250   3.63126
     258.50   3.412461     0.4806E+01  -1.52043   3.80108
     259.50   3.414137     0.4207E+01  -1.57824   3.94561
     260.50   3.415808     0.3471E+01  -1.66173   4.15432
     261.50   3.417472     0.3040E+01  -1.71934   4.29835
     262.50   3.419129     0.4503E+01  -1.54875   3.87187
     263.50   3.420781     0.8991E+01  -1.24841   3.12103
     264.50   3.422426     0.1239E+02  -1.10914   2.77286
     265.50   3.424065     0.1811E+02  -0.94427   2.36068
     266.50   3.425697     0.1111E+02  -1.15653   2.89132
     267.50   3.427324     0.1269E+02  -1.09876   2.74691
     268.50   3.428944     0.1516E+02  -1.02149   2.55373
     269.50   3.430559     0.1026E+02  -1.19106   2.97765
     270.50   3.432167     0.1315E+02  -1.08332   2.70829
     271.50   3.433770     0.8966E+01  -1.24965   3.12414
     272.50   3.435366     0.6523E+01  -1.38776   3.46941
     273.50   3.436957     0.8917E+01  -1.25201   3.13002
     274.50   3.438542     0.4685E+01  -1.53150   3.82876
     275.50   3.440122     0.6971E+01  -1.35894   3.39735
     276.50   3.441695     0.9669E+01  -1.21686   3.04215
     277.50   3.443263     0.1022E+02  -1.19258   2.98145
     278.50   3.444825     0.5427E+01  -1.46770   3.66924
     279.50   3.446382     0.2126E+01  -1.87460   4.68651
     280.50   3.447933     0.2676E+01  -1.77481   4.43702
     281.50   3.449478     0.8666E+01  -1.26444   3.16110
     282.50   3.451018     0.1328E+02  -1.07893   2.69733
     283.50   3.452553     0.1204E+02  -1.12148   2.80371
     284.50   3.454082     0.7582E+01  -1.32245   3.30611
     285.50   3.455606     0.3638E+01  -1.64141   4.10351
     286.50   3.457125     0.1146E+02  -1.14299   2.85747
     287.50   3.458638     0.1703E+02  -0.97106   2.42764
     288.50   3.460146     0.1546E+02  -1.01304   2.53259
     289.50   3.461648     0.1994E+02  -0.90241   2.25601
     291.00   3.463893     0.2818E+02  -0.75224   1.88060
     293.00   3.466868     0.2547E+02  -0.79617   1.99043
     295.00   3.469822     0.2423E+02  -0.81791   2.04478
     297.00   3.472756     0.2540E+02  -0.79737   1.99342
     299.00   3.475671     0.2657E+02  -0.77786   1.94464
     301.00   3.478566     0.2670E+02  -0.77569   1.93923
     303.00   3.481443     0.2893E+02  -0.74082   1.85206
     305.00   3.484300     0.3032E+02  -0.72056   1.80141
     307.00   3.487138     0.3112E+02  -0.70916   1.77290
     309.00   3.489959     0.2843E+02  -0.74847   1.87119
     311.00   3.492760     0.3367E+02  -0.67502   1.68756
     313.00   3.495544     0.3055E+02  -0.71719   1.79297
     315.00   3.498311     0.3020E+02  -0.72222   1.80554
     317.00   3.501059     0.3441E+02  -0.66556   1.66391
     319.00   3.503791     0.2984E+02  -0.72746   1.81865
     321.00   3.506505     0.3324E+02  -0.68054   1.70135
     323.00   3.509202     0.2851E+02  -0.74728   1.86819
     325.00   3.511883     0.4078E+02  -0.59178   1.47946
     327.00   3.514548     0.4762E+02  -0.52448   1.31121
     329.00   3.517196     0.4657E+02  -0.53409   1.33522
     331.00   3.519828     0.4297E+02  -0.56903   1.42257
     333.00   3.522444     0.4446E+02  -0.55423   1.38558
     335.00   3.525045     0.4294E+02  -0.56937   1.42343
     337.00   3.527630     0.3079E+02  -0.71386   1.78465
     339.00   3.530200     0.3647E+02  -0.64031   1.60077
     341.00   3.532754     0.3807E+02  -0.62170   1.55426
     343.00   3.535294     0.4145E+02  -0.58466   1.46166
     345.00   3.537819     0.4479E+02  -0.55106   1.37765
     347.00   3.540329     0.4681E+02  -0.53191   1.32979
     349.00   3.542825     0.5245E+02  -0.48247   1.20617
     351.00   3.545307     0.5588E+02  -0.45499   1.13748
     353.00   3.547775     0.5012E+02  -0.50225   1.25562
     355.00   3.550228     0.5733E+02  -0.44385   1.10963
     357.00   3.552668     0.4177E+02  -0.58136   1.45339
     359.00   3.555094     0.4280E+02  -0.57083   1.42708
     361.00   3.557507     0.5314E+02  -0.47681   1.19202
     363.00   3.559907     0.5466E+02  -0.46460   1.16149
     364.00   3.561101     0.5605E+02  -0.45362   1.13406
     365.00   3.562293     0.6060E+02  -0.41980   1.04950
     367.00   3.564666     0.6478E+02  -0.39081   0.97703
     369.00   3.567026     0.5831E+02  -0.43647   1.09118
     371.00   3.569374     0.6135E+02  -0.41443   1.03608
     373.00   3.571709     0.4024E+02  -0.59762   1.49405
     375.00   3.574031     0.4614E+02  -0.53819   1.34547
     377.00   3.576341     0.6051E+02  -0.42038   1.05095
     379.00   3.578639     0.6237E+02  -0.40728   1.01821
     381.00   3.580925     0.5892E+02  -0.43201   1.08003
     383.00   3.583199     0.3301E+02  -0.68360   1.70899
     385.00   3.585461     0.4663E+02  -0.53353   1.33383
     387.00   3.587711     0.4569E+02  -0.54239   1.35597
     389.00   3.589950     0.5650E+02  -0.45018   1.12545
     391.00   3.592177     0.6844E+02  -0.36695   0.91736
     393.00   3.594393     0.3304E+02  -0.68319   1.70797
     395.00   3.596597     0.5999E+02  -0.42416   1.06040
     397.00   3.598790     0.4122E+02  -0.58712   1.46781
     399.00   3.600973     0.8892E+02  -0.25324   0.63311
     401.00   3.603144     0.9765E+02  -0.21255   0.53138
     403.00   3.605305     0.9624E+02  -0.21889   0.54722
     405.00   3.607455     0.9247E+02  -0.23624   0.59061
     407.00   3.609594     0.8753E+02  -0.26006   0.65015
     409.00   3.611723     0.1073E+03  -0.17157   0.42893
     411.00   3.613842     0.1008E+03  -0.19864   0.49660
     413.00   3.615950     0.9890E+02  -0.20702   0.51756
     415.00   3.618048     0.9657E+02  -0.21740   0.54351
     417.00   3.620136     0.9853E+02  -0.20866   0.52164
     419.00   3.622214     0.9558E+02  -0.22188   0.55469
     421.00   3.624282     0.9647E+02  -0.21786   0.54466
     423.00   3.626340     0.9127E+02  -0.24189   0.60473
     425.00   3.628389     0.9646E+02  -0.21788   0.54469
     427.00   3.630428     0.9077E+02  -0.24431   0.61078
     429.00   3.632457     0.8445E+02  -0.27565   0.68913
     431.00   3.634477     0.7223E+02  -0.34353   0.85882
     433.00   3.636488     0.1080E+03  -0.16884   0.42210
     435.00   3.638489     0.1069E+03  -0.17320   0.43300
     437.00   3.640481     0.1157E+03  -0.13897   0.34743
     439.00   3.642465     0.1032E+03  -0.18865   0.47162
     441.00   3.644439     0.1104E+03  -0.15924   0.39809
     443.00   3.646404     0.1204E+03  -0.12146   0.30366
     445.00   3.648360     0.1210E+03  -0.11942   0.29855
     447.00   3.650307     0.1293E+03  -0.09048   0.22619
     449.00   3.652246     0.1331E+03  -0.07800   0.19500
     451.00   3.654176     0.1501E+03  -0.02591   0.06477
     453.00   3.656098     0.1325E+03  -0.08015   0.20038
     455.00   3.658011     0.1391E+03  -0.05898   0.14745
     457.00   3.659916     0.1500E+03  -0.02612   0.06530
     459.00   3.661813     0.1413E+03  -0.05220   0.13049
     461.00   3.663701     0.1461E+03  -0.03753   0.09384
     463.00   3.665581     0.1431E+03  -0.04654   0.11635
     465.00   3.667453     0.1448E+03  -0.04153   0.10381
     467.00   3.669317     0.1509E+03  -0.02358   0.05895
     469.00   3.671173     0.1483E+03  -0.03100   0.07749
     471.00   3.673021     0.1452E+03  -0.04035   0.10088
     473.00   3.674861     0.1496E+03  -0.02742   0.06856
     475.00   3.676694     0.1530E+03  -0.01761   0.04402
     477.00   3.678518     0.1497E+03  -0.02710   0.06776
     479.00   3.680336     0.1508E+03  -0.02380   0.05951
     481.00   3.682145     0.1516E+03  -0.02160   0.05399
     483.00   3.683947     0.1557E+03  -0.01008   0.02521
     485.00   3.685742     0.1495E+03  -0.02758   0.06896
     487.00   3.687529     0.1378E+03  -0.06289   0.15723
     489.00   3.689309     0.1519E+03  -0.02056   0.05141
     491.00   3.691082     0.1530E+03  -0.01756   0.04391
     493.00   3.692847     0.1505E+03  -0.02473   0.06182
     495.00   3.694605     0.1560E+03  -0.00918   0.02295
     497.00   3.696356     0.1512E+03  -0.02257   0.05641
     499.00   3.698101     0.1414E+03  -0.05168   0.12921
     501.00   3.699838     0.1340E+03  -0.07503   0.18759
     503.00   3.701568     0.1428E+03  -0.04743   0.11859
     505.00   3.703291     0.1426E+03  -0.04815   0.12038
     507.00   3.705008     0.1486E+03  -0.03012   0.07531
     509.00   3.706718     0.1415E+03  -0.05154   0.12885
     511.00   3.708421     0.1446E+03  -0.04197   0.10491
     513.00   3.710117     0.1409E+03  -0.05347   0.13369
     515.00   3.711807     0.1359E+03  -0.06889   0.17223
     517.00   3.713490     0.1230E+03  -0.11225   0.28063
     519.00   3.715167     0.1280E+03  -0.09494   0.23734
     521.00   3.716838     0.1384E+03  -0.06113   0.15283
     523.00   3.718502     0.1507E+03  -0.02413   0.06034
     525.00   3.720159     0.1571E+03  -0.00612   0.01530
     527.00   3.721811     0.1390E+03  -0.05925   0.14814
     529.00   3.723456     0.1600E+03   0.00190  -0.00476
     531.00   3.725095     0.1692E+03   0.02606  -0.06515
     533.00   3.726727     0.1504E+03  -0.02494   0.06235
     535.00   3.728354     0.1646E+03   0.01424  -0.03559
     537.00   3.729974     0.1630E+03   0.00983  -0.02457
     539.00   3.731589     0.1602E+03   0.00234  -0.00585
     541.00   3.733197     0.1577E+03  -0.00450   0.01124
     543.00   3.734800     0.1601E+03   0.00206  -0.00515
     545.00   3.736397     0.1630E+03   0.00990  -0.02475
     547.00   3.737987     0.1597E+03   0.00096  -0.00239
     549.00   3.739572     0.1615E+03   0.00601  -0.01503
     551.00   3.741152     0.1593E+03   0.00000   0.00000
     553.00   3.742725     0.1649E+03   0.01508  -0.03770
     555.00   3.744293     0.1678E+03   0.02243  -0.05609
     557.00   3.745855     0.1638E+03   0.01215  -0.03038
     559.00   3.747412     0.1600E+03   0.00180  -0.00451
     561.00   3.748963     0.1647E+03   0.01456  -0.03641
