age =   10.0    [Fe/H] =   -0.25

wavele(nm) log wave(A)   Hlam       log(Hlam/Hlam(V))  Hlam(mag(V)) 
      89.50   2.951823     0.1059E-12 -15.27691  38.19227
      90.50   2.956649     0.2226E-12 -14.95427  37.38568
      91.50   2.961421     0.3491E-12 -14.75898  36.89745
      92.50   2.966142     0.1264E-09 -12.19997  30.49994
      93.50   2.970812     0.1746E-09 -12.05993  30.14981
      94.50   2.975432     0.2474E-09 -11.90844  29.77111
      95.50   2.980003     0.3673E-09 -11.73683  29.34207
      96.50   2.984527     0.5229E-09 -11.58346  28.95865
      97.50   2.989005     0.6853E-09 -11.46601  28.66503
      98.50   2.993436     0.9583E-09 -11.32037  28.30092
      99.50   2.997823     0.1285E-08 -11.19293  27.98233
     100.50   3.002166     0.1865E-08 -11.03116  27.57791
     101.50   3.006466     0.2488E-08 -10.90597  27.26492
     102.50   3.010724     0.2814E-08 -10.85253  27.13132
     103.50   3.014940     0.4531E-08 -10.64564  26.61411
     104.50   3.019116     0.6146E-08 -10.51329  26.28323
     105.50   3.023252     0.7817E-08 -10.40880  26.02201
     106.50   3.027350     0.1030E-07 -10.28909  25.72272
     107.50   3.031409     0.1372E-07 -10.16467  25.41166
     108.50   3.035430     0.1820E-07 -10.04190  25.10474
     109.50   3.039414     0.2275E-07  -9.94494  24.86236
     110.50   3.043362     0.1646E-06  -9.08533  22.71334
     111.50   3.047275     0.3132E-06  -8.80608  22.01519
     112.50   3.051152     0.4774E-06  -8.62298  21.55746
     113.50   3.054996     0.7200E-06  -8.44455  21.11138
     114.50   3.058805     0.9494E-06  -8.32442  20.81104
     115.50   3.062582     0.1078E-05  -8.26922  20.67305
     116.50   3.066326     0.1429E-05  -8.14688  20.36721
     117.50   3.070038     0.1796E-05  -8.04754  20.11884
     118.50   3.073718     0.1828E-05  -8.03986  20.09966
     119.50   3.077368     0.1296E-05  -8.18943  20.47357
     120.50   3.080987     0.1176E-05  -8.23135  20.57838
     121.50   3.084576     0.2180E-06  -8.96333  22.40833
     122.50   3.088136     0.1533E-05  -8.11636  20.29089
     123.50   3.091667     0.3979E-05  -7.70214  19.25535
     124.50   3.095169     0.6899E-05  -7.46307  18.65769
     125.50   3.098644     0.9378E-05  -7.32976  18.32441
     126.50   3.102091     0.1033E-04  -7.28763  18.21908
     127.50   3.105510     0.1359E-04  -7.16880  17.92199
     128.50   3.108903     0.1682E-04  -7.07615  17.69038
     129.50   3.112270     0.2038E-04  -6.99258  17.48144
     130.50   3.115611     0.2183E-04  -6.96282  17.40706
     131.50   3.118926     0.2794E-04  -6.85566  17.13914
     132.50   3.122216     0.3049E-04  -6.81769  17.04422
     133.50   3.125481     0.3405E-04  -6.76970  16.92426
     134.50   3.128722     0.4018E-04  -6.69782  16.74455
     135.50   3.131939     0.4567E-04  -6.64221  16.60552
     136.50   3.135133     0.5004E-04  -6.60258  16.50646
     137.50   3.138303     0.5373E-04  -6.57167  16.42917
     138.50   3.141450     0.5860E-04  -6.53401  16.33501
     139.50   3.144574     0.6623E-04  -6.48080  16.20200
     140.50   3.147676     0.7833E-04  -6.40793  16.01983
     141.50   3.150756     0.8825E-04  -6.35614  15.89035
     142.50   3.153815     0.9916E-04  -6.30551  15.76378
     143.50   3.156852     0.1148E-03  -6.24196  15.60489
     144.20   3.158965     0.1479E-03  -6.13194  15.32984
     144.70   3.160469     0.1334E-03  -6.17683  15.44207
     145.50   3.162863     0.1572E-03  -6.10549  15.26373
     146.50   3.165838     0.1918E-03  -6.01904  15.04761
     147.50   3.168792     0.2161E-03  -5.96725  14.91812
     148.50   3.171726     0.2334E-03  -5.93368  14.83421
     149.50   3.174641     0.3025E-03  -5.82109  14.55272
     150.50   3.177536     0.3618E-03  -5.74335  14.35836
     151.20   3.179552     0.2859E-03  -5.84570  14.61426
     151.70   3.180986     0.3524E-03  -5.75479  14.38697
     152.50   3.183270     0.7048E-03  -5.45378  13.63444
     153.50   3.186108     0.1052E-02  -5.28005  13.20013
     154.50   3.188928     0.9144E-03  -5.34075  13.35187
     155.50   3.191730     0.1352E-02  -5.17094  12.92736
     156.50   3.194514     0.1287E-02  -5.19229  12.98071
     157.50   3.197281     0.2139E-02  -4.97175  12.42939
     158.50   3.200029     0.2557E-02  -4.89408  12.23520
     159.50   3.202761     0.2961E-02  -4.83041  12.07601
     160.50   3.205475     0.3147E-02  -4.80392  12.00980
     161.50   3.208173     0.3526E-02  -4.75455  11.88637
     162.50   3.210853     0.3825E-02  -4.71928  11.79821
     163.50   3.213518     0.4528E-02  -4.64594  11.61486
     164.50   3.216166     0.6136E-02  -4.51401  11.28503
     165.50   3.218798     0.4022E-02  -4.69746  11.74366
     166.50   3.221414     0.6980E-02  -4.45800  11.14499
     167.20   3.223236     0.5073E-02  -4.59663  11.49159
     167.70   3.224533     0.2023E-01  -3.99585   9.98964
     168.50   3.226600     0.2098E-01  -3.98014   9.95036
     169.50   3.229170     0.2369E-01  -3.92738   9.81846
     170.50   3.231725     0.2796E-01  -3.85537   9.63844
     171.50   3.234264     0.3723E-01  -3.73097   9.32742
     172.50   3.236789     0.4563E-01  -3.64263   9.10657
     173.50   3.239300     0.6034E-01  -3.52124   8.80309
     174.50   3.241796     0.7406E-01  -3.43228   8.58071
     175.50   3.244277     0.1098E+00  -3.26145   8.15363
     176.50   3.246745     0.8514E-01  -3.37173   8.42932
     177.50   3.249198     0.1057E+00  -3.27779   8.19448
     178.50   3.251638     0.1381E+00  -3.16154   7.90386
     179.50   3.254065     0.1984E+00  -3.00425   7.51062
     180.50   3.256477     0.1946E+00  -3.01265   7.53164
     181.50   3.258877     0.1676E+00  -3.07759   7.69397
     182.50   3.261263     0.2064E+00  -2.98721   7.46802
     183.50   3.263636     0.2118E+00  -2.97588   7.43969
     184.50   3.265996     0.1251E+00  -3.20448   8.01119
     185.50   3.268344     0.2427E+00  -2.91678   7.29195
     186.50   3.270679     0.3225E+00  -2.79340   6.98349
     187.50   3.273001     0.3265E+00  -2.78792   6.96980
     188.50   3.275311     0.3464E+00  -2.76230   6.90575
     189.50   3.277609     0.4611E+00  -2.63807   6.59516
     190.50   3.279895     0.4313E+00  -2.66705   6.66763
     191.50   3.282169     0.4876E+00  -2.61384   6.53460
     192.50   3.284431     0.4070E+00  -2.69223   6.73058
     193.50   3.286681     0.2082E+00  -2.98344   7.45860
     194.50   3.288920     0.5904E+00  -2.53073   6.32683
     195.50   3.291147     0.6206E+00  -2.50904   6.27260
     196.70   3.293804     0.8241E+00  -2.38591   5.96477
     197.60   3.295787     0.6951E+00  -2.45983   6.14957
     198.40   3.297542     0.8943E+00  -2.35037   5.87593
     199.50   3.299943     0.9733E+00  -2.31361   5.78403
     200.50   3.302114     0.8874E+00  -2.35376   5.88439
     201.50   3.304275     0.9723E+00  -2.31407   5.78517
     202.50   3.306425     0.7016E+00  -2.45576   6.13940
     203.50   3.308564     0.1099E+01  -2.26090   5.65226
     204.50   3.310693     0.1287E+01  -2.19214   5.48034
     205.50   3.312812     0.1231E+01  -2.21152   5.52879
     206.50   3.314920     0.1177E+01  -2.23117   5.57794
     207.40   3.316809     0.1354E+01  -2.17039   5.42598
     207.80   3.317646     0.3360E+01  -1.77552   4.43880
     208.50   3.319106     0.4328E+01  -1.66560   4.16400
     209.50   3.321184     0.3905E+01  -1.71024   4.27561
     210.50   3.323252     0.3689E+01  -1.73498   4.33744
     211.50   3.325310     0.4372E+01  -1.66119   4.15298
     212.50   3.327359     0.3664E+01  -1.73790   4.34476
     213.50   3.329398     0.3508E+01  -1.75675   4.39188
     214.50   3.331427     0.4778E+01  -1.62258   4.05646
     215.50   3.333447     0.4658E+01  -1.63368   4.08419
     216.50   3.335458     0.3848E+01  -1.71668   4.29171
     217.50   3.337459     0.3926E+01  -1.70793   4.26983
     218.50   3.339452     0.5390E+01  -1.57029   3.92572
     219.50   3.341434     0.5272E+01  -1.57988   3.94970
     220.50   3.343409     0.5093E+01  -1.59493   3.98732
     221.50   3.345374     0.3687E+01  -1.73518   4.33795
     222.50   3.347330     0.4644E+01  -1.63501   4.08752
     223.50   3.349277     0.6501E+01  -1.48889   3.72222
     224.50   3.351216     0.6132E+01  -1.51423   3.78559
     225.50   3.353147     0.4333E+01  -1.66512   4.16280
     226.50   3.355068     0.3868E+01  -1.71438   4.28595
     227.50   3.356982     0.4262E+01  -1.67229   4.18074
     228.50   3.358886     0.6347E+01  -1.49932   3.74830
     229.50   3.360783     0.5008E+01  -1.60220   4.00549
     230.50   3.362671     0.6483E+01  -1.49012   3.72531
     231.50   3.364551     0.5313E+01  -1.57655   3.94138
     232.50   3.366423     0.4289E+01  -1.66952   4.17379
     233.50   3.368287     0.3489E+01  -1.75912   4.39780
     234.50   3.370143     0.2062E+01  -1.98767   4.96917
     235.50   3.371991     0.4905E+01  -1.61122   4.02805
     236.50   3.373831     0.2405E+01  -1.92070   4.80175
     237.50   3.375664     0.3468E+01  -1.76177   4.40441
     238.50   3.377488     0.1703E+01  -2.07073   5.17682
     239.50   3.379306     0.2342E+01  -1.93230   4.83075
     240.50   3.381115     0.2378E+01  -1.92572   4.81430
     241.50   3.382917     0.3043E+01  -1.81863   4.54658
     242.50   3.384712     0.6130E+01  -1.51438   3.78595
     243.50   3.386499     0.6159E+01  -1.51235   3.78087
     244.50   3.388279     0.7613E+01  -1.42031   3.55077
     245.50   3.390052     0.8176E+01  -1.38931   3.47326
     246.50   3.391817     0.6822E+01  -1.46797   3.66992
     247.50   3.393575     0.5792E+01  -1.53902   3.84756
     248.50   3.395326     0.2821E+01  -1.85142   4.62855
     249.50   3.397071     0.4016E+01  -1.69809   4.24522
     250.50   3.398808     0.6926E+01  -1.46140   3.65350
     251.30   3.400192     0.2329E+01  -1.93472   4.83679
     251.80   3.401056     0.1538E+01  -2.11491   5.28726
     252.50   3.402261     0.1923E+01  -2.01780   5.04450
     253.50   3.403978     0.4172E+01  -1.68147   4.20367
     254.50   3.405688     0.4501E+01  -1.64858   4.12145
     255.50   3.407391     0.9169E+01  -1.33955   3.34886
     256.50   3.409087     0.6451E+01  -1.49222   3.73054
     257.50   3.410777     0.8657E+01  -1.36450   3.41125
     258.50   3.412461     0.7450E+01  -1.42973   3.57433
     259.50   3.414137     0.6510E+01  -1.48831   3.72077
     260.50   3.415808     0.5383E+01  -1.57087   3.92717
     261.50   3.417472     0.4706E+01  -1.62925   4.07312
     262.50   3.419129     0.6986E+01  -1.45767   3.64417
     263.50   3.420781     0.1335E+02  -1.17634   2.94086
     264.50   3.422426     0.1848E+02  -1.03522   2.58806
     265.50   3.424065     0.2604E+02  -0.88615   2.21538
     266.50   3.425697     0.1639E+02  -1.08739   2.71847
     267.50   3.427324     0.1876E+02  -1.02856   2.57139
     268.50   3.428944     0.2202E+02  -0.95908   2.39770
     269.50   3.430559     0.1537E+02  -1.11519   2.78796
     270.50   3.432167     0.1933E+02  -1.01566   2.53916
     271.50   3.433770     0.1347E+02  -1.17247   2.93117
     272.50   3.435366     0.1042E+02  -1.28420   3.21049
     273.50   3.436957     0.1373E+02  -1.16432   2.91079
     274.50   3.438542     0.7100E+01  -1.45061   3.62653
     275.50   3.440122     0.1042E+02  -1.28407   3.21019
     276.50   3.441695     0.1427E+02  -1.14730   2.86824
     277.50   3.443263     0.1523E+02  -1.11910   2.79775
     278.50   3.444825     0.8194E+01  -1.38839   3.47096
     279.50   3.446382     0.3107E+01  -1.80949   4.52372
     280.50   3.447933     0.3939E+01  -1.70652   4.26629
     281.50   3.449478     0.1307E+02  -1.18573   2.96432
     282.50   3.451018     0.2001E+02  -1.00054   2.50136
     283.50   3.452553     0.1856E+02  -1.03326   2.58316
     284.50   3.454082     0.1252E+02  -1.20416   3.01039
     285.50   3.455606     0.6198E+01  -1.50964   3.77411
     286.50   3.457125     0.1828E+02  -1.03986   2.59964
     287.50   3.458638     0.2538E+02  -0.89729   2.24323
     288.50   3.460146     0.2286E+02  -0.94277   2.35693
     289.50   3.461648     0.2843E+02  -0.84810   2.12026
     291.00   3.463893     0.3927E+02  -0.70786   1.76965
     293.00   3.466868     0.3556E+02  -0.75088   1.87721
     295.00   3.469822     0.3408E+02  -0.76940   1.92350
     297.00   3.472756     0.3591E+02  -0.74668   1.86669
     299.00   3.475671     0.3736E+02  -0.72947   1.82367
     301.00   3.478566     0.3789E+02  -0.72330   1.80825
     303.00   3.481443     0.4042E+02  -0.69532   1.73830
     305.00   3.484300     0.4233E+02  -0.67521   1.68802
     307.00   3.487138     0.4314E+02  -0.66696   1.66740
     309.00   3.489959     0.4015E+02  -0.69822   1.74554
     311.00   3.492760     0.4626E+02  -0.63663   1.59156
     313.00   3.495544     0.4258E+02  -0.67268   1.68170
     315.00   3.498311     0.4190E+02  -0.67969   1.69922
     317.00   3.501059     0.4724E+02  -0.62759   1.56898
     319.00   3.503791     0.4123E+02  -0.68665   1.71662
     321.00   3.506505     0.4594E+02  -0.63971   1.59928
     323.00   3.509202     0.3948E+02  -0.70552   1.76380
     325.00   3.511883     0.5499E+02  -0.56155   1.40386
     327.00   3.514548     0.6370E+02  -0.49771   1.24427
     329.00   3.517196     0.6226E+02  -0.50769   1.26922
     331.00   3.519828     0.5824E+02  -0.53662   1.34155
     333.00   3.522444     0.5997E+02  -0.52392   1.30980
     335.00   3.525045     0.5815E+02  -0.53731   1.34327
     337.00   3.527630     0.4300E+02  -0.66843   1.67108
     339.00   3.530200     0.5030E+02  -0.60029   1.50072
     341.00   3.532754     0.5225E+02  -0.58376   1.45940
     343.00   3.535294     0.5632E+02  -0.55122   1.37805
     345.00   3.537819     0.6052E+02  -0.51994   1.29984
     347.00   3.540329     0.6292E+02  -0.50305   1.25762
     349.00   3.542825     0.6977E+02  -0.45821   1.14552
     351.00   3.545307     0.7392E+02  -0.43311   1.08277
     353.00   3.547775     0.6676E+02  -0.47737   1.19343
     355.00   3.550228     0.7600E+02  -0.42103   1.05259
     357.00   3.552668     0.5676E+02  -0.54780   1.36950
     359.00   3.555094     0.5786E+02  -0.53948   1.34870
     361.00   3.557507     0.7037E+02  -0.45448   1.13621
     363.00   3.559907     0.7227E+02  -0.44294   1.10734
     364.00   3.561101     0.7400E+02  -0.43261   1.08153
     365.00   3.562293     0.8006E+02  -0.39845   0.99613
     367.00   3.564666     0.8465E+02  -0.37423   0.93558
     369.00   3.567026     0.7686E+02  -0.41614   1.04036
     371.00   3.569374     0.8131E+02  -0.39170   0.97926
     373.00   3.571709     0.5575E+02  -0.55563   1.38907
     375.00   3.574031     0.6341E+02  -0.49972   1.24931
     377.00   3.576341     0.8085E+02  -0.39420   0.98550
     379.00   3.578639     0.8352E+02  -0.38006   0.95015
     381.00   3.580925     0.8022E+02  -0.39760   0.99400
     383.00   3.583199     0.4713E+02  -0.62852   1.57131
     385.00   3.585461     0.6565E+02  -0.48460   1.21150
     387.00   3.587711     0.6470E+02  -0.49097   1.22741
     389.00   3.589950     0.7661E+02  -0.41755   1.04388
     391.00   3.592177     0.9162E+02  -0.33987   0.84967
     393.00   3.594393     0.4526E+02  -0.64615   1.61538
     395.00   3.596597     0.8031E+02  -0.39709   0.99274
     397.00   3.598790     0.5539E+02  -0.55846   1.39615
     399.00   3.600973     0.1164E+03  -0.23598   0.58995
     401.00   3.603144     0.1273E+03  -0.19692   0.49230
     403.00   3.605305     0.1260E+03  -0.20137   0.50341
     405.00   3.607455     0.1213E+03  -0.21818   0.54544
     407.00   3.609594     0.1153E+03  -0.23995   0.59987
     409.00   3.611723     0.1389E+03  -0.15909   0.39773
     411.00   3.613842     0.1305E+03  -0.18618   0.46544
     413.00   3.615950     0.1291E+03  -0.19082   0.47705
     415.00   3.618048     0.1267E+03  -0.19918   0.49795
     417.00   3.620136     0.1288E+03  -0.19203   0.48008
     419.00   3.622214     0.1252E+03  -0.20410   0.51025
     421.00   3.624282     0.1265E+03  -0.19981   0.49953
     423.00   3.626340     0.1204E+03  -0.22138   0.55344
     425.00   3.628389     0.1266E+03  -0.19954   0.49884
     427.00   3.630428     0.1195E+03  -0.22462   0.56155
     429.00   3.632457     0.1112E+03  -0.25558   0.63894
     431.00   3.634477     0.9533E+02  -0.32262   0.80655
     433.00   3.636488     0.1396E+03  -0.15704   0.39259
     435.00   3.638489     0.1375E+03  -0.16359   0.40897
     437.00   3.640481     0.1495E+03  -0.12727   0.31818
     439.00   3.642465     0.1342E+03  -0.17420   0.43550
     441.00   3.644439     0.1430E+03  -0.14645   0.36613
     443.00   3.646404     0.1551E+03  -0.11133   0.27833
     445.00   3.648360     0.1556E+03  -0.10974   0.27436
     447.00   3.650307     0.1657E+03  -0.08247   0.20618
     449.00   3.652246     0.1702E+03  -0.07087   0.17717
     451.00   3.654176     0.1911E+03  -0.02065   0.05163
     453.00   3.656098     0.1694E+03  -0.07298   0.18244
     455.00   3.658011     0.1772E+03  -0.05333   0.13332
     457.00   3.659916     0.1909E+03  -0.02117   0.05292
     459.00   3.661813     0.1799E+03  -0.04673   0.11683
     461.00   3.663701     0.1860E+03  -0.03239   0.08096
     463.00   3.665581     0.1821E+03  -0.04156   0.10389
     465.00   3.667453     0.1843E+03  -0.03625   0.09063
     467.00   3.669317     0.1917E+03  -0.01921   0.04802
     469.00   3.671173     0.1886E+03  -0.02642   0.06604
     471.00   3.673021     0.1845E+03  -0.03592   0.08981
     473.00   3.674861     0.1902E+03  -0.02262   0.05655
     475.00   3.676694     0.1946E+03  -0.01280   0.03200
     477.00   3.678518     0.1908E+03  -0.02132   0.05330
     479.00   3.680336     0.1919E+03  -0.01870   0.04675
     481.00   3.682145     0.1925E+03  -0.01739   0.04348
     483.00   3.683947     0.1975E+03  -0.00621   0.01553
     485.00   3.685742     0.1892E+03  -0.02496   0.06239
     487.00   3.687529     0.1740E+03  -0.06144   0.15359
     489.00   3.689309     0.1926E+03  -0.01713   0.04283
     491.00   3.691082     0.1938E+03  -0.01442   0.03605
     493.00   3.692847     0.1908E+03  -0.02125   0.05313
     495.00   3.694605     0.1979E+03  -0.00547   0.01369
     497.00   3.696356     0.1922E+03  -0.01809   0.04521
     499.00   3.698101     0.1799E+03  -0.04673   0.11683
     501.00   3.699838     0.1709E+03  -0.06915   0.17287
     503.00   3.701568     0.1818E+03  -0.04220   0.10549
     505.00   3.703291     0.1817E+03  -0.04257   0.10642
     507.00   3.705008     0.1893E+03  -0.02467   0.06168
     509.00   3.706718     0.1803E+03  -0.04587   0.11468
     511.00   3.708421     0.1843E+03  -0.03645   0.09113
     513.00   3.710117     0.1794E+03  -0.04800   0.12000
     515.00   3.711807     0.1734E+03  -0.06280   0.15701
     517.00   3.713490     0.1579E+03  -0.10341   0.25853
     519.00   3.715167     0.1638E+03  -0.08755   0.21888
     521.00   3.716838     0.1761E+03  -0.05614   0.14034
     523.00   3.718502     0.1904E+03  -0.02216   0.05539
     525.00   3.720159     0.1980E+03  -0.00520   0.01299
     527.00   3.721811     0.1760E+03  -0.05638   0.14095
     529.00   3.723456     0.2015E+03   0.00231  -0.00578
     531.00   3.725095     0.2125E+03   0.02553  -0.06382
     533.00   3.726727     0.1897E+03  -0.02391   0.05977
     535.00   3.728354     0.2070E+03   0.01416  -0.03540
     537.00   3.729974     0.2051E+03   0.01008  -0.02519
     539.00   3.731589     0.2015E+03   0.00241  -0.00601
     541.00   3.733197     0.1984E+03  -0.00441   0.01102
     543.00   3.734800     0.2014E+03   0.00227  -0.00568
     545.00   3.736397     0.2053E+03   0.01049  -0.02622
     547.00   3.737987     0.2008E+03   0.00091  -0.00228
     549.00   3.739572     0.2030E+03   0.00557  -0.01392
     551.00   3.741152     0.2004E+03   0.00000   0.00000
     553.00   3.742725     0.2070E+03   0.01417  -0.03542
     555.00   3.744293     0.2105E+03   0.02130  -0.05324
     557.00   3.745855     0.2056E+03   0.01115  -0.02788
     559.00   3.747412     0.2010E+03   0.00126  -0.00316
     561.00   3.748963     0.2068E+03   0.01369  -0.03422
