age =   14.0    [Fe/H] =   -0.25

wavele(nm) log wave(A)   Hlam       log(Hlam/Hlam(V))  Hlam(mag(V)) 
      89.50   2.951823     0.7105E-13 -15.32275  38.30687
      90.50   2.956649     0.1359E-12 -15.04106  37.60264
      91.50   2.961421     0.2133E-12 -14.84543  37.11357
      92.50   2.966142     0.3661E-10 -12.61069  31.52672
      93.50   2.970812     0.5066E-10 -12.46967  31.17418
      94.50   2.975432     0.7286E-10 -12.31185  30.77962
      95.50   2.980003     0.1092E-09 -12.13596  30.33990
      96.50   2.984527     0.1585E-09 -11.97430  29.93574
      97.50   2.989005     0.2093E-09 -11.85352  29.63381
      98.50   2.993436     0.2964E-09 -11.70252  29.25629
      99.50   2.997823     0.4035E-09 -11.56848  28.92119
     100.50   3.002166     0.5911E-09 -11.40265  28.50662
     101.50   3.006466     0.7972E-09 -11.27279  28.18198
     102.50   3.010724     0.9018E-09 -11.21923  28.04808
     103.50   3.014940     0.1489E-08 -11.00158  27.50394
     104.50   3.019116     0.2051E-08 -10.86236  27.15590
     105.50   3.023252     0.2596E-08 -10.76000  26.90001
     106.50   3.027350     0.3498E-08 -10.63049  26.57622
     107.50   3.031409     0.4699E-08 -10.50235  26.25588
     108.50   3.035430     0.6316E-08 -10.37388  25.93469
     109.50   3.039414     0.7898E-08 -10.27681  25.69204
     110.50   3.043362     0.4411E-07  -9.52982  23.82455
     111.50   3.047275     0.7921E-07  -9.27553  23.18883
     112.50   3.051152     0.1203E-06  -9.09406  22.73514
     113.50   3.054996     0.1835E-06  -8.91079  22.27697
     114.50   3.058805     0.2436E-06  -8.78770  21.96925
     115.50   3.062582     0.2816E-06  -8.72471  21.81177
     116.50   3.066326     0.3737E-06  -8.60181  21.50453
     117.50   3.070038     0.4763E-06  -8.49649  21.24123
     118.50   3.073718     0.4977E-06  -8.47737  21.19344
     119.50   3.077368     0.3815E-06  -8.59287  21.48217
     120.50   3.080987     0.3544E-06  -8.62490  21.56225
     121.50   3.084576     0.7397E-07  -9.30529  23.26323
     122.50   3.088136     0.4706E-06  -8.50172  21.25429
     123.50   3.091667     0.1153E-05  -8.11257  20.28144
     124.50   3.095169     0.1853E-05  -7.90644  19.76609
     125.50   3.098644     0.2431E-05  -7.78853  19.47132
     126.50   3.102091     0.2697E-05  -7.74348  19.35870
     127.50   3.105510     0.3451E-05  -7.63633  19.09084
     128.50   3.108903     0.4140E-05  -7.55730  18.89325
     129.50   3.112270     0.5020E-05  -7.47359  18.68398
     130.50   3.115611     0.5416E-05  -7.44065  18.60162
     131.50   3.118926     0.6825E-05  -7.34023  18.35058
     132.50   3.122216     0.7320E-05  -7.30982  18.27456
     133.50   3.125481     0.8165E-05  -7.26239  18.15597
     134.50   3.128722     0.9645E-05  -7.19003  17.97507
     135.50   3.131939     0.1111E-04  -7.12873  17.82181
     136.50   3.135133     0.1207E-04  -7.09253  17.73133
     137.50   3.138303     0.1302E-04  -7.05972  17.64930
     138.50   3.141450     0.1428E-04  -7.01950  17.54875
     139.50   3.144574     0.1616E-04  -6.96587  17.41467
     140.50   3.147676     0.1934E-04  -6.88798  17.21996
     141.50   3.150756     0.2199E-04  -6.83220  17.08051
     142.50   3.153815     0.2499E-04  -6.77651  16.94128
     143.50   3.156852     0.2937E-04  -6.70645  16.76612
     144.20   3.158965     0.3815E-04  -6.59281  16.48203
     144.70   3.160469     0.3413E-04  -6.64122  16.60305
     145.50   3.162863     0.4029E-04  -6.56914  16.42284
     146.50   3.165838     0.5053E-04  -6.47082  16.17704
     147.50   3.168792     0.5744E-04  -6.41511  16.03778
     148.50   3.171726     0.6184E-04  -6.38304  15.95759
     149.50   3.174641     0.8097E-04  -6.26602  15.66505
     150.50   3.177536     0.9800E-04  -6.18310  15.45775
     151.20   3.179552     0.7513E-04  -6.29852  15.74631
     151.70   3.180986     0.9489E-04  -6.19714  15.49284
     152.50   3.183270     0.2062E-03  -5.85997  14.64993
     153.50   3.186108     0.3237E-03  -5.66420  14.16049
     154.50   3.188928     0.2717E-03  -5.74022  14.35056
     155.50   3.191730     0.4250E-03  -5.54600  13.86499
     156.50   3.194514     0.4030E-03  -5.56905  13.92263
     157.50   3.197281     0.7052E-03  -5.32600  13.31501
     158.50   3.200029     0.8499E-03  -5.24497  13.11243
     159.50   3.202761     0.9889E-03  -5.17919  12.94797
     160.50   3.205475     0.1058E-02  -5.14986  12.87464
     161.50   3.208173     0.1187E-02  -5.09992  12.74979
     162.50   3.210853     0.1311E-02  -5.05689  12.64223
     163.50   3.213518     0.1545E-02  -4.98551  12.46377
     164.50   3.216166     0.2145E-02  -4.84290  12.10724
     165.50   3.218798     0.1401E-02  -5.02782  12.56956
     166.50   3.221414     0.2462E-02  -4.78309  11.95772
     167.20   3.223236     0.1777E-02  -4.92474  12.31186
     167.70   3.224533     0.6519E-02  -4.36012  10.90031
     168.50   3.226600     0.6990E-02  -4.32985  10.82463
     169.50   3.229170     0.8289E-02  -4.25581  10.63953
     170.50   3.231725     0.9469E-02  -4.19804  10.49509
     171.50   3.234264     0.1115E-01  -4.12716  10.31789
     172.50   3.236789     0.1390E-01  -4.03134  10.07835
     173.50   3.239300     0.1806E-01  -3.91769   9.79423
     174.50   3.241796     0.2359E-01  -3.80167   9.50417
     175.50   3.244277     0.3455E-01  -3.63587   9.08967
     176.50   3.246745     0.2786E-01  -3.72940   9.32350
     177.50   3.249198     0.3364E-01  -3.64748   9.11869
     178.50   3.251638     0.4493E-01  -3.52176   8.80440
     179.50   3.254065     0.6198E-01  -3.38212   8.45529
     180.50   3.256477     0.6379E-01  -3.36958   8.42394
     181.50   3.258877     0.5403E-01  -3.44171   8.60427
     182.50   3.261263     0.6893E-01  -3.33591   8.33977
     183.50   3.263636     0.7104E-01  -3.32285   8.30712
     184.50   3.265996     0.4270E-01  -3.54393   8.85982
     185.50   3.268344     0.8180E-01  -3.26161   8.15401
     186.50   3.270679     0.1062E+00  -3.14822   7.87055
     187.50   3.273001     0.1098E+00  -3.13363   7.83407
     188.50   3.275311     0.1176E+00  -3.10388   7.75971
     189.50   3.277609     0.1583E+00  -2.97487   7.43716
     190.50   3.279895     0.1492E+00  -3.00066   7.50164
     191.50   3.282169     0.1692E+00  -2.94605   7.36512
     192.50   3.284431     0.1464E+00  -3.00873   7.52183
     193.50   3.286681     0.8080E-01  -3.26693   8.16732
     194.50   3.288920     0.2106E+00  -2.85081   7.12701
     195.50   3.291147     0.2207E+00  -2.83046   7.07615
     196.70   3.293804     0.2991E+00  -2.69853   6.74632
     197.60   3.295787     0.2552E+00  -2.76744   6.91860
     198.40   3.297542     0.3274E+00  -2.65932   6.64829
     199.50   3.299943     0.3582E+00  -2.62019   6.55048
     200.50   3.302114     0.3315E+00  -2.65381   6.63452
     201.50   3.304275     0.3655E+00  -2.61149   6.52873
     202.50   3.306425     0.2622E+00  -2.75567   6.88917
     203.50   3.308564     0.4105E+00  -2.56105   6.40262
     204.50   3.310693     0.4832E+00  -2.49019   6.22547
     205.50   3.312812     0.4687E+00  -2.50340   6.25850
     206.50   3.314920     0.4539E+00  -2.51737   6.29341
     207.40   3.316809     0.5115E+00  -2.46553   6.16383
     207.80   3.317646     0.1428E+01  -2.01954   5.04885
     208.50   3.319106     0.1881E+01  -1.89996   4.74991
     209.50   3.321184     0.1690E+01  -1.94636   4.86590
     210.50   3.323252     0.1624E+01  -1.96365   4.90912
     211.50   3.325310     0.1964E+01  -1.88112   4.70279
     212.50   3.327359     0.1651E+01  -1.95658   4.89144
     213.50   3.329398     0.1617E+01  -1.96562   4.91406
     214.50   3.331427     0.2211E+01  -1.82979   4.57447
     215.50   3.333447     0.2110E+01  -1.85005   4.62512
     216.50   3.335458     0.1740E+01  -1.93375   4.83437
     217.50   3.337459     0.1752E+01  -1.93069   4.82671
     218.50   3.339452     0.2517E+01  -1.77343   4.43357
     219.50   3.341434     0.2416E+01  -1.79121   4.47802
     220.50   3.343409     0.2371E+01  -1.79942   4.49855
     221.50   3.345374     0.1698E+01  -1.94429   4.86072
     222.50   3.347330     0.2224E+01  -1.82715   4.56788
     223.50   3.349277     0.3176E+01  -1.67247   4.18117
     224.50   3.351216     0.3005E+01  -1.69655   4.24136
     225.50   3.353147     0.2097E+01  -1.85283   4.63206
     226.50   3.355068     0.1809E+01  -1.91687   4.79218
     227.50   3.356982     0.1972E+01  -1.87940   4.69849
     228.50   3.358886     0.3108E+01  -1.68179   4.20447
     229.50   3.360783     0.2402E+01  -1.79383   4.48457
     230.50   3.362671     0.3157E+01  -1.67501   4.18752
     231.50   3.364551     0.2572E+01  -1.76406   4.41015
     232.50   3.366423     0.2135E+01  -1.84491   4.61227
     233.50   3.368287     0.1769E+01  -1.92668   4.81669
     234.50   3.370143     0.1049E+01  -2.15342   5.38356
     235.50   3.371991     0.2458E+01  -1.78383   4.45958
     236.50   3.373831     0.1235E+01  -2.08282   5.20704
     237.50   3.375664     0.1748E+01  -1.93182   4.82956
     238.50   3.377488     0.8978E+00  -2.22117   5.55293
     239.50   3.379306     0.1213E+01  -2.09065   5.22663
     240.50   3.381115     0.1250E+01  -2.07727   5.19318
     241.50   3.382917     0.1552E+01  -1.98332   4.95830
     242.50   3.384712     0.3157E+01  -1.67507   4.18768
     243.50   3.386499     0.3195E+01  -1.66981   4.17452
     244.50   3.388279     0.3994E+01  -1.57297   3.93242
     245.50   3.390052     0.4322E+01  -1.53868   3.84671
     246.50   3.391817     0.3483E+01  -1.63241   4.08102
     247.50   3.393575     0.2933E+01  -1.70698   4.26746
     248.50   3.395326     0.1271E+01  -2.07027   5.17568
     249.50   3.397071     0.1955E+01  -1.88330   4.70825
     250.50   3.398808     0.3424E+01  -1.63980   4.09950
     251.30   3.400192     0.1165E+01  -2.10802   5.27005
     251.80   3.401056     0.7798E+00  -2.28237   5.70591
     252.50   3.402261     0.9590E+00  -2.19251   5.48129
     253.50   3.403978     0.2232E+01  -1.82572   4.56430
     254.50   3.405688     0.2368E+01  -1.79998   4.49994
     255.50   3.407391     0.5252E+01  -1.45403   3.63508
     256.50   3.409087     0.3602E+01  -1.61773   4.04433
     257.50   3.410777     0.4964E+01  -1.47854   3.69635
     258.50   3.412461     0.4238E+01  -1.54715   3.86788
     259.50   3.414137     0.3714E+01  -1.60452   4.01130
     260.50   3.415808     0.3064E+01  -1.68803   4.22007
     261.50   3.417472     0.2685E+01  -1.74537   4.36343
     262.50   3.419129     0.3973E+01  -1.57524   3.93809
     263.50   3.420781     0.8031E+01  -1.26958   3.17395
     264.50   3.422426     0.1105E+02  -1.13084   2.82709
     265.50   3.424065     0.1634E+02  -0.96112   2.40279
     266.50   3.425697     0.9946E+01  -1.17667   2.94167
     267.50   3.427324     0.1135E+02  -1.11934   2.79834
     268.50   3.428944     0.1363E+02  -1.03969   2.59923
     269.50   3.430559     0.9142E+01  -1.21328   3.03319
     270.50   3.432167     0.1179E+02  -1.10290   2.75725
     271.50   3.433770     0.7983E+01  -1.27216   3.18040
     272.50   3.435366     0.5699E+01  -1.41852   3.54631
     273.50   3.436957     0.7879E+01  -1.27787   3.19467
     274.50   3.438542     0.4164E+01  -1.55478   3.88695
     275.50   3.440122     0.6218E+01  -1.38068   3.45171
     276.50   3.441695     0.8653E+01  -1.23715   3.09288
     277.50   3.443263     0.9128E+01  -1.21395   3.03488
     278.50   3.444825     0.4831E+01  -1.49030   3.72574
     279.50   3.446382     0.1911E+01  -1.89305   4.73262
     280.50   3.447933     0.2400E+01  -1.79413   4.48531
     281.50   3.449478     0.7710E+01  -1.28727   3.21818
     282.50   3.451018     0.1181E+02  -1.10208   2.75520
     283.50   3.452553     0.1063E+02  -1.14777   2.86942
     284.50   3.454082     0.6557E+01  -1.35762   3.39404
     285.50   3.455606     0.3123E+01  -1.67970   4.19924
     286.50   3.457125     0.1001E+02  -1.17405   2.93513
     287.50   3.458638     0.1519E+02  -0.99285   2.48212
     288.50   3.460146     0.1384E+02  -1.03335   2.58337
     289.50   3.461648     0.1804E+02  -0.91804   2.29510
     291.00   3.463893     0.2567E+02  -0.76487   1.91218
     293.00   3.466868     0.2319E+02  -0.80900   2.02250
     295.00   3.469822     0.2201E+02  -0.83174   2.07934
     297.00   3.472756     0.2304E+02  -0.81183   2.02957
     299.00   3.475671     0.2414E+02  -0.79157   1.97893
     301.00   3.478566     0.2419E+02  -0.79064   1.97660
     303.00   3.481443     0.2634E+02  -0.75371   1.88427
     305.00   3.484300     0.2760E+02  -0.73341   1.83352
     307.00   3.487138     0.2840E+02  -0.72104   1.80260
     309.00   3.489959     0.2581E+02  -0.76263   1.90657
     311.00   3.492760     0.3080E+02  -0.68578   1.71445
     313.00   3.495544     0.2783E+02  -0.72977   1.82442
     315.00   3.498311     0.2756E+02  -0.73408   1.83520
     317.00   3.501059     0.3149E+02  -0.67615   1.69038
     319.00   3.503791     0.2726E+02  -0.73886   1.84714
     321.00   3.506505     0.3036E+02  -0.69200   1.73001
     323.00   3.509202     0.2602E+02  -0.75898   1.89744
     325.00   3.511883     0.3751E+02  -0.60022   1.50055
     327.00   3.514548     0.4389E+02  -0.53197   1.32992
     329.00   3.517196     0.4294E+02  -0.54144   1.35361
     331.00   3.519828     0.3947E+02  -0.57805   1.44513
     333.00   3.522444     0.4090E+02  -0.56267   1.40667
     335.00   3.525045     0.3945E+02  -0.57831   1.44579
     337.00   3.527630     0.2805E+02  -0.72647   1.81618
     339.00   3.530200     0.3333E+02  -0.65147   1.62869
     341.00   3.532754     0.3484E+02  -0.63226   1.58064
     343.00   3.535294     0.3806E+02  -0.59391   1.48478
     345.00   3.537819     0.4118E+02  -0.55963   1.39907
     347.00   3.540329     0.4310E+02  -0.53989   1.34973
     349.00   3.542825     0.4843E+02  -0.48918   1.22295
     351.00   3.545307     0.5168E+02  -0.46100   1.15250
     353.00   3.547775     0.4627E+02  -0.50907   1.27267
     355.00   3.550228     0.5299E+02  -0.45012   1.12529
     357.00   3.552668     0.3834E+02  -0.59069   1.47672
     359.00   3.555094     0.3934E+02  -0.57952   1.44879
     361.00   3.557507     0.4914E+02  -0.48292   1.20730
     363.00   3.559907     0.5056E+02  -0.47053   1.17632
     364.00   3.561101     0.5187E+02  -0.45939   1.14848
     365.00   3.562293     0.5606E+02  -0.42566   1.06416
     367.00   3.564666     0.6011E+02  -0.39540   0.98850
     369.00   3.567026     0.5399E+02  -0.44203   1.10506
     371.00   3.569374     0.5672E+02  -0.42056   1.05141
     373.00   3.571709     0.3675E+02  -0.60904   1.52259
     375.00   3.574031     0.4224E+02  -0.54859   1.37148
     377.00   3.576341     0.5584E+02  -0.42738   1.06845
     379.00   3.578639     0.5751E+02  -0.41459   1.03647
     381.00   3.580925     0.5407E+02  -0.44136   1.10340
     383.00   3.583199     0.2990E+02  -0.69862   1.74655
     385.00   3.585461     0.4238E+02  -0.54719   1.36796
     387.00   3.587711     0.4146E+02  -0.55666   1.39165
     389.00   3.589950     0.5192E+02  -0.45904   1.14759
     391.00   3.592177     0.6313E+02  -0.37413   0.93532
     393.00   3.594393     0.3028E+02  -0.69316   1.73289
     395.00   3.596597     0.5533E+02  -0.43138   1.07846
     397.00   3.598790     0.3798E+02  -0.59481   1.48702
     399.00   3.600973     0.8252E+02  -0.25775   0.64438
     401.00   3.603144     0.9073E+02  -0.21659   0.54147
     403.00   3.605305     0.8930E+02  -0.22348   0.55870
     405.00   3.607455     0.8579E+02  -0.24092   0.60231
     407.00   3.609594     0.8110E+02  -0.26529   0.66323
     409.00   3.611723     0.9990E+02  -0.17477   0.43693
     411.00   3.613842     0.9386E+02  -0.20187   0.50466
     413.00   3.615950     0.9186E+02  -0.21119   0.52799
     415.00   3.618048     0.8959E+02  -0.22208   0.55521
     417.00   3.620136     0.9150E+02  -0.21293   0.53233
     419.00   3.622214     0.8869E+02  -0.22646   0.56616
     421.00   3.624282     0.8949E+02  -0.22259   0.55647
     423.00   3.626340     0.8452E+02  -0.24737   0.61843
     425.00   3.628389     0.8946E+02  -0.22271   0.55679
     427.00   3.630428     0.8411E+02  -0.24948   0.62370
     429.00   3.632457     0.7825E+02  -0.28087   0.70216
     431.00   3.634477     0.6691E+02  -0.34886   0.87216
     433.00   3.636488     0.1006E+03  -0.17190   0.42974
     435.00   3.638489     0.9969E+02  -0.17568   0.43919
     437.00   3.640481     0.1077E+03  -0.14199   0.35497
     439.00   3.642465     0.9593E+02  -0.19237   0.48093
     441.00   3.644439     0.1028E+03  -0.16253   0.40633
     443.00   3.646404     0.1123E+03  -0.12409   0.31021
     445.00   3.648360     0.1128E+03  -0.12190   0.30476
     447.00   3.650307     0.1207E+03  -0.09251   0.23128
     449.00   3.652246     0.1243E+03  -0.07981   0.19952
     451.00   3.654176     0.1403E+03  -0.02724   0.06809
     453.00   3.656098     0.1237E+03  -0.08199   0.20498
     455.00   3.658011     0.1300E+03  -0.06040   0.15100
     457.00   3.659916     0.1403E+03  -0.02736   0.06841
     459.00   3.661813     0.1321E+03  -0.05360   0.13399
     461.00   3.663701     0.1366E+03  -0.03883   0.09709
     463.00   3.665581     0.1338E+03  -0.04778   0.11945
     465.00   3.667453     0.1354E+03  -0.04287   0.10718
     467.00   3.669317     0.1411E+03  -0.02470   0.06174
     469.00   3.671173     0.1387E+03  -0.03218   0.08044
     471.00   3.673021     0.1358E+03  -0.04150   0.10374
     473.00   3.674861     0.1398E+03  -0.02868   0.07169
     475.00   3.676694     0.1430E+03  -0.01888   0.04721
     477.00   3.678518     0.1398E+03  -0.02869   0.07173
     479.00   3.680336     0.1410E+03  -0.02519   0.06297
     481.00   3.682145     0.1418E+03  -0.02271   0.05676
     483.00   3.683947     0.1456E+03  -0.01112   0.02781
     485.00   3.685742     0.1400E+03  -0.02827   0.07068
     487.00   3.687529     0.1291E+03  -0.06325   0.15813
     489.00   3.689309     0.1422E+03  -0.02145   0.05363
     491.00   3.691082     0.1432E+03  -0.01837   0.04593
     493.00   3.692847     0.1408E+03  -0.02564   0.06409
     495.00   3.694605     0.1459E+03  -0.01019   0.02546
     497.00   3.696356     0.1414E+03  -0.02379   0.05948
     499.00   3.698101     0.1322E+03  -0.05303   0.13258
     501.00   3.699838     0.1252E+03  -0.07664   0.19161
     503.00   3.701568     0.1335E+03  -0.04887   0.12217
     505.00   3.703291     0.1332E+03  -0.04969   0.12423
     507.00   3.705008     0.1389E+03  -0.03167   0.07917
     509.00   3.706718     0.1322E+03  -0.05311   0.13276
     511.00   3.708421     0.1352E+03  -0.04351   0.10879
     513.00   3.710117     0.1316E+03  -0.05501   0.13753
     515.00   3.711807     0.1270E+03  -0.07059   0.17647
     517.00   3.713490     0.1147E+03  -0.11461   0.28653
     519.00   3.715167     0.1195E+03  -0.09692   0.24230
     521.00   3.716838     0.1294E+03  -0.06249   0.15623
     523.00   3.718502     0.1412E+03  -0.02463   0.06157
     525.00   3.720159     0.1472E+03  -0.00633   0.01582
     527.00   3.721811     0.1301E+03  -0.05998   0.14995
     529.00   3.723456     0.1500E+03   0.00183  -0.00457
     531.00   3.725095     0.1587E+03   0.02620  -0.06551
     533.00   3.726727     0.1410E+03  -0.02517   0.06294
     535.00   3.728354     0.1544E+03   0.01427  -0.03567
     537.00   3.729974     0.1528E+03   0.00977  -0.02443
     539.00   3.731589     0.1502E+03   0.00236  -0.00590
     541.00   3.733197     0.1479E+03  -0.00450   0.01124
     543.00   3.734800     0.1501E+03   0.00202  -0.00504
     545.00   3.736397     0.1528E+03   0.00971  -0.02429
     547.00   3.737987     0.1497E+03   0.00097  -0.00244
     549.00   3.739572     0.1515E+03   0.00614  -0.01535
     551.00   3.741152     0.1494E+03   0.00000   0.00000
     553.00   3.742725     0.1548E+03   0.01533  -0.03833
     555.00   3.744293     0.1574E+03   0.02274  -0.05686
     557.00   3.745855     0.1537E+03   0.01243  -0.03108
     559.00   3.747412     0.1501E+03   0.00195  -0.00488
     561.00   3.748963     0.1546E+03   0.01478  -0.03696
