age =   12.0    [Fe/H] =    0.00

wavele(nm) log wave(A)   Hlam       log(Hlam/Hlam(V))  Hlam(mag(V)) 
      89.50   2.951823     0.1286E-12 -15.08392  37.70979
      90.50   2.956649     0.2089E-12 -14.87339  37.18349
      91.50   2.961421     0.3268E-12 -14.67890  36.69725
      92.50   2.966142     0.1337E-10 -13.06725  32.66812
      93.50   2.970812     0.1871E-10 -12.92117  32.30293
      94.50   2.975432     0.2728E-10 -12.75733  31.89331
      95.50   2.980003     0.4146E-10 -12.57560  31.43900
      96.50   2.984527     0.6099E-10 -12.40794  31.01986
      97.50   2.989005     0.8196E-10 -12.27964  30.69909
      98.50   2.993436     0.1158E-09 -12.12941  30.32352
      99.50   2.997823     0.1585E-09 -11.99310  29.98275
     100.50   3.002166     0.2365E-09 -11.81934  29.54836
     101.50   3.006466     0.3232E-09 -11.68379  29.20948
     102.50   3.010724     0.3780E-09 -11.61579  29.03947
     103.50   3.014940     0.6155E-09 -11.40401  28.51003
     104.50   3.019116     0.8515E-09 -11.26306  28.15765
     105.50   3.023252     0.1092E-08 -11.15485  27.88713
     106.50   3.027350     0.1478E-08 -11.02357  27.55893
     107.50   3.031409     0.2004E-08 -10.89143  27.22856
     108.50   3.035430     0.2702E-08 -10.76161  26.90403
     109.50   3.039414     0.3400E-08 -10.66177  26.65443
     110.50   3.043362     0.1419E-07 -10.04123  25.10308
     111.50   3.047275     0.2412E-07  -9.81094  24.52735
     112.50   3.051152     0.3575E-07  -9.63997  24.09992
     113.50   3.054996     0.5314E-07  -9.46783  23.66958
     114.50   3.058805     0.7130E-07  -9.34013  23.35033
     115.50   3.062582     0.8426E-07  -9.26761  23.16902
     116.50   3.066326     0.1149E-06  -9.13310  22.83274
     117.50   3.070038     0.1487E-06  -9.02079  22.55198
     118.50   3.073718     0.1661E-06  -8.97299  22.43247
     119.50   3.077368     0.1440E-06  -9.03488  22.58721
     120.50   3.080987     0.1603E-06  -8.98840  22.47101
     121.50   3.084576     0.4121E-07  -9.57819  23.94548
     122.50   3.088136     0.2194E-06  -8.85199  22.12997
     123.50   3.091667     0.4243E-06  -8.56558  21.41395
     124.50   3.095169     0.5851E-06  -8.42600  21.06499
     125.50   3.098644     0.7082E-06  -8.34310  20.85776
     126.50   3.102091     0.7670E-06  -8.30847  20.77116
     127.50   3.105510     0.9446E-06  -8.21800  20.54500
     128.50   3.108903     0.1072E-05  -8.16295  20.40738
     129.50   3.112270     0.1308E-05  -8.07678  20.19196
     130.50   3.115611     0.1375E-05  -8.05488  20.13721
     131.50   3.118926     0.1725E-05  -7.95640  19.89100
     132.50   3.122216     0.1804E-05  -7.93701  19.84251
     133.50   3.125481     0.2019E-05  -7.88803  19.72008
     134.50   3.128722     0.2390E-05  -7.81486  19.53716
     135.50   3.131939     0.2793E-05  -7.74713  19.36784
     136.50   3.135133     0.3006E-05  -7.71529  19.28823
     137.50   3.138303     0.3266E-05  -7.67925  19.19812
     138.50   3.141450     0.3610E-05  -7.63577  19.08941
     139.50   3.144574     0.4080E-05  -7.58256  18.95640
     140.50   3.147676     0.4987E-05  -7.49538  18.73844
     141.50   3.150756     0.5695E-05  -7.43771  18.59428
     142.50   3.153815     0.6598E-05  -7.37380  18.43451
     143.50   3.156852     0.7888E-05  -7.29629  18.24072
     144.20   3.158965     0.1022E-04  -7.18379  17.95947
     144.70   3.160469     0.9196E-05  -7.22963  18.07407
     145.50   3.162863     0.1084E-04  -7.15824  17.89560
     146.50   3.165838     0.1398E-04  -7.04764  17.61910
     147.50   3.168792     0.1602E-04  -6.98859  17.47148
     148.50   3.171726     0.1729E-04  -6.95543  17.38857
     149.50   3.174641     0.2272E-04  -6.83692  17.09229
     150.50   3.177536     0.2786E-04  -6.74831  16.87079
     151.20   3.179552     0.2107E-04  -6.86954  17.17386
     151.70   3.180986     0.2705E-04  -6.76104  16.90259
     152.50   3.183270     0.6634E-04  -6.37147  15.92868
     153.50   3.186108     0.1111E-03  -6.14742  15.36854
     154.50   3.188928     0.9134E-04  -6.23258  15.58145
     155.50   3.191730     0.1531E-03  -6.00824  15.02061
     156.50   3.194514     0.1442E-03  -6.03425  15.08562
     157.50   3.197281     0.2744E-03  -5.75484  14.38709
     158.50   3.200029     0.3347E-03  -5.66855  14.17138
     159.50   3.202761     0.3929E-03  -5.59890  13.99725
     160.50   3.205475     0.4214E-03  -5.56854  13.92135
     161.50   3.208173     0.4634E-03  -5.52731  13.81827
     162.50   3.210853     0.5229E-03  -5.47485  13.68711
     163.50   3.213518     0.6158E-03  -5.40379  13.50948
     164.50   3.216166     0.8772E-03  -5.25014  13.12535
     165.50   3.218798     0.5668E-03  -5.43983  13.59957
     166.50   3.221414     0.1018E-02  -5.18532  12.96331
     167.20   3.223236     0.7147E-03  -5.33914  13.34784
     167.70   3.224533     0.2711E-02  -4.76005  11.90013
     168.50   3.226600     0.3061E-02  -4.70734  11.76834
     169.50   3.229170     0.3831E-02  -4.60997  11.52491
     170.50   3.231725     0.4133E-02  -4.57694  11.44235
     171.50   3.234264     0.3947E-02  -4.59698  11.49245
     172.50   3.236789     0.5073E-02  -4.48797  11.21992
     173.50   3.239300     0.6087E-02  -4.40880  11.02201
     174.50   3.241796     0.8399E-02  -4.26899  10.67247
     175.50   3.244277     0.1143E-01  -4.13506  10.33766
     176.50   3.246745     0.1061E-01  -4.16769  10.41924
     177.50   3.249198     0.1166E-01  -4.12660  10.31651
     178.50   3.251638     0.1538E-01  -4.00616  10.01539
     179.50   3.254065     0.1897E-01  -3.91513   9.78782
     180.50   3.256477     0.1997E-01  -3.89281   9.73203
     181.50   3.258877     0.1861E-01  -3.92341   9.80853
     182.50   3.261263     0.2361E-01  -3.82006   9.55015
     183.50   3.263636     0.2469E-01  -3.80068   9.50170
     184.50   3.265996     0.1887E-01  -3.91753   9.79384
     185.50   3.268344     0.2747E-01  -3.75433   9.38583
     186.50   3.270679     0.3270E-01  -3.67870   9.19676
     187.50   3.273001     0.3531E-01  -3.64534   9.11334
     188.50   3.275311     0.3797E-01  -3.61382   9.03455
     189.50   3.277609     0.4978E-01  -3.49617   8.74042
     190.50   3.279895     0.4849E-01  -3.50761   8.76902
     191.50   3.282169     0.5423E-01  -3.45896   8.64741
     192.50   3.284431     0.5418E-01  -3.45940   8.64850
     193.50   3.286681     0.3864E-01  -3.60618   9.01545
     194.50   3.288920     0.7124E-01  -3.34052   8.35131
     195.50   3.291147     0.7484E-01  -3.31909   8.29774
     196.70   3.293804     0.9741E-01  -3.20463   8.01157
     197.60   3.295787     0.9230E-01  -3.22804   8.07009
     198.40   3.297542     0.1108E+00  -3.14876   7.87191
     199.50   3.299943     0.1156E+00  -3.13025   7.82562
     200.50   3.302114     0.1128E+00  -3.14076   7.85190
     201.50   3.304275     0.1241E+00  -3.09936   7.74839
     202.50   3.306425     0.1014E+00  -3.18741   7.96853
     203.50   3.308564     0.1408E+00  -3.04454   7.61134
     204.50   3.310693     0.1633E+00  -2.98025   7.45062
     205.50   3.312812     0.1683E+00  -2.96721   7.41801
     206.50   3.314920     0.1682E+00  -2.96749   7.41873
     207.40   3.316809     0.1835E+00  -2.92949   7.32372
     207.80   3.317646     0.5649E+00  -2.44129   6.10322
     208.50   3.319106     0.7877E+00  -2.29690   5.74226
     209.50   3.321184     0.7203E+00  -2.33571   5.83928
     210.50   3.323252     0.7212E+00  -2.33519   5.83798
     211.50   3.325310     0.8640E+00  -2.25670   5.64174
     212.50   3.327359     0.7539E+00  -2.31593   5.78982
     213.50   3.329398     0.7534E+00  -2.31618   5.79046
     214.50   3.331427     0.1028E+01  -2.18115   5.45288
     215.50   3.333447     0.9672E+00  -2.20770   5.51926
     216.50   3.335458     0.8265E+00  -2.27600   5.69000
     217.50   3.337459     0.8137E+00  -2.28276   5.70690
     218.50   3.339452     0.1207E+01  -2.11162   5.27906
     219.50   3.341434     0.1122E+01  -2.14313   5.35782
     220.50   3.343409     0.1135E+01  -2.13822   5.34555
     221.50   3.345374     0.8114E+00  -2.28401   5.71003
     222.50   3.347330     0.1082E+01  -2.15919   5.39797
     223.50   3.349277     0.1588E+01  -1.99239   4.98097
     224.50   3.351216     0.1514E+01  -2.01310   5.03276
     225.50   3.353147     0.1080E+01  -2.15978   5.39946
     226.50   3.355068     0.9061E+00  -2.23608   5.59020
     227.50   3.356982     0.1008E+01  -2.18967   5.47417
     228.50   3.358886     0.1663E+01  -1.97239   4.93099
     229.50   3.360783     0.1259E+01  -2.09327   5.23317
     230.50   3.362671     0.1665E+01  -1.97179   4.92948
     231.50   3.364551     0.1344E+01  -2.06468   5.16169
     232.50   3.366423     0.1146E+01  -2.13392   5.33481
     233.50   3.368287     0.9985E+00  -2.19389   5.48473
     234.50   3.370143     0.6133E+00  -2.40554   6.01386
     235.50   3.371991     0.1324E+01  -2.07122   5.17806
     236.50   3.373831     0.7326E+00  -2.32837   5.82094
     237.50   3.375664     0.9829E+00  -2.20073   5.50183
     238.50   3.377488     0.5738E+00  -2.43451   6.08628
     239.50   3.379306     0.7414E+00  -2.32318   5.80796
     240.50   3.381115     0.7813E+00  -2.30042   5.75104
     241.50   3.382917     0.8885E+00  -2.24456   5.61141
     242.50   3.384712     0.1732E+01  -1.95471   4.88677
     243.50   3.386499     0.1807E+01  -1.93629   4.84072
     244.50   3.388279     0.2273E+01  -1.83659   4.59148
     245.50   3.390052     0.2507E+01  -1.79416   4.48541
     246.50   3.391817     0.1925E+01  -1.90885   4.77213
     247.50   3.393575     0.1660E+01  -1.97324   4.93309
     248.50   3.395326     0.7011E+00  -2.34748   5.86870
     249.50   3.397071     0.1089E+01  -2.15639   5.39097
     250.50   3.398808     0.1919E+01  -1.91017   4.77543
     251.30   3.400192     0.7324E+00  -2.32851   5.82128
     251.80   3.401056     0.5206E+00  -2.47676   6.19189
     252.50   3.402261     0.6066E+00  -2.41032   6.02580
     253.50   3.403978     0.1367E+01  -2.05739   5.14348
     254.50   3.405688     0.1450E+01  -2.03199   5.07996
     255.50   3.407391     0.3553E+01  -1.64270   4.10675
     256.50   3.409087     0.2358E+01  -1.82064   4.55160
     257.50   3.410777     0.3363E+01  -1.66653   4.16632
     258.50   3.412461     0.2869E+01  -1.73558   4.33895
     259.50   3.414137     0.2539E+01  -1.78859   4.47147
     260.50   3.415808     0.2143E+01  -1.86220   4.65549
     261.50   3.417472     0.1897E+01  -1.91514   4.78785
     262.50   3.419129     0.2770E+01  -1.75073   4.37681
     263.50   3.420781     0.5873E+01  -1.42437   3.56093
     264.50   3.422426     0.7992E+01  -1.29059   3.22649
     265.50   3.424065     0.1259E+02  -1.09313   2.73283
     266.50   3.425697     0.7069E+01  -1.34387   3.35967
     267.50   3.427324     0.8143E+01  -1.28247   3.20618
     268.50   3.428944     0.1007E+02  -1.19006   2.97516
     269.50   3.430559     0.6543E+01  -1.37744   3.44359
     270.50   3.432167     0.8724E+01  -1.25251   3.13129
     271.50   3.433770     0.5803E+01  -1.42955   3.57386
     272.50   3.435366     0.3822E+01  -1.61093   4.02733
     273.50   3.436957     0.5503E+01  -1.45262   3.63156
     274.50   3.438542     0.3004E+01  -1.71549   4.28872
     275.50   3.440122     0.4434E+01  -1.54649   3.86622
     276.50   3.441695     0.6204E+01  -1.40058   3.50145
     277.50   3.443263     0.6524E+01  -1.37870   3.44675
     278.50   3.444825     0.3551E+01  -1.64294   4.10736
     279.50   3.446382     0.1532E+01  -2.00796   5.01989
     280.50   3.447933     0.1902E+01  -1.91414   4.78534
     281.50   3.449478     0.5568E+01  -1.44753   3.61883
     282.50   3.451018     0.8503E+01  -1.26369   3.15922
     283.50   3.452553     0.7611E+01  -1.31181   3.27952
     284.50   3.454082     0.4484E+01  -1.54162   3.85404
     285.50   3.455606     0.2175E+01  -1.85576   4.63940
     286.50   3.457125     0.7041E+01  -1.34559   3.36396
     287.50   3.458638     0.1157E+02  -1.12998   2.82496
     288.50   3.460146     0.1052E+02  -1.17136   2.92841
     289.50   3.461648     0.1444E+02  -1.03380   2.58451
     291.00   3.463893     0.2143E+02  -0.86217   2.15543
     293.00   3.466868     0.2012E+02  -0.88958   2.22395
     295.00   3.469822     0.1991E+02  -0.89424   2.23559
     297.00   3.472756     0.2138E+02  -0.86315   2.15786
     299.00   3.475671     0.2307E+02  -0.83015   2.07538
     301.00   3.478566     0.2332E+02  -0.82554   2.06386
     303.00   3.481443     0.2585E+02  -0.78070   1.95175
     305.00   3.484300     0.2662E+02  -0.76805   1.92012
     307.00   3.487138     0.2610E+02  -0.77653   1.94133
     309.00   3.489959     0.2246E+02  -0.84186   2.10464
     311.00   3.492760     0.2764E+02  -0.75174   1.87934
     313.00   3.495544     0.2439E+02  -0.80607   2.01516
     315.00   3.498311     0.2446E+02  -0.80486   2.01214
     317.00   3.501059     0.2855E+02  -0.73768   1.84420
     319.00   3.503791     0.2407E+02  -0.81177   2.02942
     321.00   3.506505     0.2689E+02  -0.76358   1.90895
     323.00   3.509202     0.2286E+02  -0.83420   2.08549
     325.00   3.511883     0.3392E+02  -0.66277   1.65693
     327.00   3.514548     0.3948E+02  -0.59680   1.49201
     329.00   3.517196     0.3863E+02  -0.60637   1.51591
     331.00   3.519828     0.3508E+02  -0.64816   1.62039
     333.00   3.522444     0.3666E+02  -0.62903   1.57258
     335.00   3.525045     0.3553E+02  -0.64259   1.60646
     337.00   3.527630     0.2483E+02  -0.79833   1.99583
     339.00   3.530200     0.2966E+02  -0.72105   1.80263
     341.00   3.532754     0.3131E+02  -0.69756   1.74391
     343.00   3.535294     0.3411E+02  -0.66037   1.65093
     345.00   3.537819     0.3921E+02  -0.59989   1.49972
     347.00   3.540329     0.4116E+02  -0.57875   1.44689
     349.00   3.542825     0.4609E+02  -0.52965   1.32412
     351.00   3.545307     0.4856E+02  -0.50695   1.26739
     353.00   3.547775     0.4285E+02  -0.56130   1.40325
     355.00   3.550228     0.4772E+02  -0.51458   1.28645
     357.00   3.552668     0.3608E+02  -0.63595   1.58988
     359.00   3.555094     0.3853E+02  -0.60744   1.51860
     361.00   3.557507     0.4816E+02  -0.51055   1.27638
     363.00   3.559907     0.4907E+02  -0.50242   1.25605
     364.00   3.561101     0.4853E+02  -0.50723   1.26808
     365.00   3.562293     0.5113E+02  -0.48454   1.21135
     367.00   3.564666     0.5566E+02  -0.44770   1.11925
     369.00   3.567026     0.4878E+02  -0.50499   1.26247
     371.00   3.569374     0.5079E+02  -0.48748   1.21870
     373.00   3.571709     0.3084E+02  -0.70418   1.76046
     375.00   3.574031     0.3582E+02  -0.63906   1.59766
     377.00   3.576341     0.4933E+02  -0.50015   1.25037
     379.00   3.578639     0.5082E+02  -0.48723   1.21809
     381.00   3.580925     0.4642E+02  -0.52649   1.31623
     383.00   3.583199     0.2414E+02  -0.81051   2.02627
     385.00   3.585461     0.3447E+02  -0.65581   1.63954
     387.00   3.587711     0.3393E+02  -0.66264   1.65660
     389.00   3.589950     0.4592E+02  -0.53122   1.32805
     391.00   3.592177     0.5732E+02  -0.43494   1.08736
     393.00   3.594393     0.2611E+02  -0.77642   1.94104
     395.00   3.596597     0.4873E+02  -0.50541   1.26353
     397.00   3.598790     0.3316E+02  -0.67266   1.68165
     399.00   3.600973     0.7766E+02  -0.30305   0.75764
     401.00   3.603144     0.8666E+02  -0.25543   0.63858
     403.00   3.605305     0.8512E+02  -0.26319   0.65797
     405.00   3.607455     0.8129E+02  -0.28321   0.70803
     407.00   3.609594     0.7584E+02  -0.31336   0.78341
     409.00   3.611723     0.9726E+02  -0.20528   0.51320
     411.00   3.613842     0.9100E+02  -0.23421   0.58552
     413.00   3.615950     0.8749E+02  -0.25127   0.62818
     415.00   3.618048     0.8508E+02  -0.26342   0.65854
     417.00   3.620136     0.8681E+02  -0.25466   0.63665
     419.00   3.622214     0.8473E+02  -0.26519   0.66297
     421.00   3.624282     0.8592E+02  -0.25915   0.64786
     423.00   3.626340     0.8019E+02  -0.28913   0.72283
     425.00   3.628389     0.8734E+02  -0.25204   0.63009
     427.00   3.630428     0.8180E+02  -0.28051   0.70127
     429.00   3.632457     0.7620E+02  -0.31127   0.77819
     431.00   3.634477     0.6573E+02  -0.37549   0.93872
     433.00   3.636488     0.1005E+03  -0.19088   0.47719
     435.00   3.638489     0.1009E+03  -0.18916   0.47290
     437.00   3.640481     0.1097E+03  -0.15318   0.38294
     439.00   3.642465     0.9559E+02  -0.21283   0.53206
     441.00   3.644439     0.1021E+03  -0.18400   0.46001
     443.00   3.646404     0.1115E+03  -0.14578   0.36446
     445.00   3.648360     0.1129E+03  -0.14062   0.35154
     447.00   3.650307     0.1220E+03  -0.10691   0.26728
     449.00   3.652246     0.1260E+03  -0.09300   0.23250
     451.00   3.654176     0.1454E+03  -0.03070   0.07676
     453.00   3.656098     0.1254E+03  -0.09491   0.23728
     455.00   3.658011     0.1326E+03  -0.07073   0.17682
     457.00   3.659916     0.1447E+03  -0.03270   0.08175
     459.00   3.661813     0.1355E+03  -0.06139   0.15348
     461.00   3.663701     0.1403E+03  -0.04629   0.11573
     463.00   3.665581     0.1363E+03  -0.05879   0.14698
     465.00   3.667453     0.1384E+03  -0.05216   0.13041
     467.00   3.669317     0.1454E+03  -0.03053   0.07632
     469.00   3.671173     0.1419E+03  -0.04124   0.10311
     471.00   3.673021     0.1389E+03  -0.05069   0.12672
     473.00   3.674861     0.1436E+03  -0.03601   0.09003
     475.00   3.676694     0.1476E+03  -0.02415   0.06037
     477.00   3.678518     0.1440E+03  -0.03497   0.08742
     479.00   3.680336     0.1455E+03  -0.03044   0.07610
     481.00   3.682145     0.1462E+03  -0.02839   0.07098
     483.00   3.683947     0.1518E+03  -0.01207   0.03017
     485.00   3.685742     0.1447E+03  -0.03263   0.08158
     487.00   3.687529     0.1331E+03  -0.06918   0.17295
     489.00   3.689309     0.1474E+03  -0.02484   0.06211
     491.00   3.691082     0.1483E+03  -0.02198   0.05496
     493.00   3.692847     0.1455E+03  -0.03031   0.07577
     495.00   3.694605     0.1516E+03  -0.01239   0.03099
     497.00   3.696356     0.1454E+03  -0.03078   0.07695
     499.00   3.698101     0.1349E+03  -0.06324   0.15810
     501.00   3.699838     0.1266E+03  -0.09086   0.22715
     503.00   3.701568     0.1359E+03  -0.05987   0.14968
     505.00   3.703291     0.1359E+03  -0.06003   0.15009
     507.00   3.705008     0.1423E+03  -0.03997   0.09993
     509.00   3.706718     0.1341E+03  -0.06568   0.16421
     511.00   3.708421     0.1379E+03  -0.05367   0.13417
     513.00   3.710117     0.1335E+03  -0.06778   0.16946
     515.00   3.711807     0.1285E+03  -0.08446   0.21116
     517.00   3.713490     0.1137E+03  -0.13732   0.34330
     519.00   3.715167     0.1193E+03  -0.11670   0.29176
     521.00   3.716838     0.1316E+03  -0.07414   0.18534
     523.00   3.718502     0.1458E+03  -0.02959   0.07397
     525.00   3.720159     0.1532E+03  -0.00799   0.01997
     527.00   3.721811     0.1329E+03  -0.06973   0.17434
     529.00   3.723456     0.1568E+03   0.00213  -0.00533
     531.00   3.725095     0.1679E+03   0.03169  -0.07922
     533.00   3.726727     0.1458E+03  -0.02960   0.07401
     535.00   3.728354     0.1622E+03   0.01671  -0.04178
     537.00   3.729974     0.1605E+03   0.01233  -0.03083
     539.00   3.731589     0.1569E+03   0.00239  -0.00599
     541.00   3.733197     0.1545E+03  -0.00421   0.01053
     543.00   3.734800     0.1573E+03   0.00336  -0.00840
     545.00   3.736397     0.1605E+03   0.01231  -0.03079
     547.00   3.737987     0.1565E+03   0.00119  -0.00298
     549.00   3.739572     0.1591E+03   0.00838  -0.02094
     551.00   3.741152     0.1560E+03   0.00000   0.00000
     553.00   3.742725     0.1628E+03   0.01831  -0.04577
     555.00   3.744293     0.1660E+03   0.02681  -0.06703
     557.00   3.745855     0.1623E+03   0.01698  -0.04246
     559.00   3.747412     0.1576E+03   0.00440  -0.01099
     561.00   3.748963     0.1634E+03   0.02004  -0.05010
