age =    9.0    [Fe/H] =    0.25

wavele(nm) log wave(A)   Hlam       log(Hlam/Hlam(V))  Hlam(mag(V)) 
      90.50   2.956649     0.7680E-14 -16.31643  40.79109
      91.50   2.961421     0.1705E-12 -14.96995  37.42487
      92.50   2.966142     0.4141E-11 -13.58465  33.96162
      93.50   2.970812     0.5866E-11 -13.43341  33.58353
      94.50   2.975432     0.8783E-11 -13.25815  33.14537
      95.50   2.980003     0.1338E-10 -13.07542  32.68855
      96.50   2.984527     0.2027E-10 -12.89491  32.23729
      97.50   2.989005     0.2775E-10 -12.75852  31.89630
      98.50   2.993436     0.3945E-10 -12.60576  31.51441
      99.50   2.997823     0.5442E-10 -12.46602  31.16504
     100.50   3.002166     0.8255E-10 -12.28505  30.71263
     101.50   3.006466     0.1150E-09 -12.14103  30.35256
     102.50   3.010724     0.1381E-09 -12.06154  30.15386
     103.50   3.014940     0.2240E-09 -11.85152  29.62881
     104.50   3.019116     0.3130E-09 -11.70623  29.26558
     105.50   3.023252     0.4041E-09 -11.59528  28.98821
     106.50   3.027350     0.5559E-09 -11.45677  28.64193
     107.50   3.031409     0.7595E-09 -11.32123  28.30306
     108.50   3.035430     0.1026E-08 -11.19059  27.97649
     109.50   3.039414     0.1291E-08 -11.09095  27.72738
     110.50   3.043362     0.2833E-08 -10.74946  26.87365
     111.50   3.047275     0.4216E-08 -10.57690  26.44226
     112.50   3.051152     0.5992E-08 -10.42423  26.06057
     113.50   3.054996     0.8695E-08 -10.26249  25.65623
     114.50   3.058805     0.1165E-07 -10.13532  25.33831
     115.50   3.062582     0.1424E-07 -10.04831  25.12077
     116.50   3.066326     0.1934E-07  -9.91540  24.78850
     117.50   3.070038     0.2512E-07  -9.80172  24.50430
     118.50   3.073718     0.2957E-07  -9.73088  24.32720
     119.50   3.077368     0.3006E-07  -9.72381  24.30953
     120.50   3.080987     0.3667E-07  -9.63752  24.09380
     121.50   3.084576     0.1708E-07  -9.96925  24.92312
     122.50   3.088136     0.5322E-07  -9.47566  23.68916
     123.50   3.091667     0.8279E-07  -9.28378  23.20945
     124.50   3.095169     0.1051E-06  -9.18000  22.95000
     125.50   3.098644     0.1253E-06  -9.10371  22.75928
     126.50   3.102091     0.1429E-06  -9.04669  22.61672
     127.50   3.105510     0.1738E-06  -8.96173  22.40432
     128.50   3.108903     0.1958E-06  -8.90990  22.27475
     129.50   3.112270     0.2393E-06  -8.82277  22.05694
     130.50   3.115611     0.2632E-06  -8.78145  21.95363
     131.50   3.118926     0.3290E-06  -8.68452  21.71129
     132.50   3.122216     0.3524E-06  -8.65477  21.63693
     133.50   3.125481     0.4013E-06  -8.59832  21.49579
     134.50   3.128722     0.4842E-06  -8.51679  21.29197
     135.50   3.131939     0.5817E-06  -8.43708  21.09269
     136.50   3.135133     0.6402E-06  -8.39547  20.98867
     137.50   3.138303     0.7162E-06  -8.34676  20.86689
     138.50   3.141450     0.8065E-06  -8.29517  20.73792
     139.50   3.144574     0.9288E-06  -8.23387  20.58468
     140.50   3.147676     0.1145E-05  -8.14286  20.35714
     141.50   3.150756     0.1333E-05  -8.07689  20.19222
     142.50   3.153815     0.1570E-05  -8.00597  20.01493
     143.50   3.156852     0.1895E-05  -7.92416  19.81041
     144.20   3.158965     0.2385E-05  -7.82434  19.56084
     144.70   3.160469     0.2241E-05  -7.85125  19.62813
     145.50   3.162863     0.2634E-05  -7.78121  19.45301
     146.50   3.165838     0.3372E-05  -7.67388  19.18471
     147.50   3.168792     0.3904E-05  -7.61027  19.02569
     148.50   3.171726     0.4302E-05  -7.56810  18.92025
     149.50   3.174641     0.5553E-05  -7.45726  18.64315
     150.50   3.177536     0.6805E-05  -7.36897  18.42242
     151.20   3.179552     0.5600E-05  -7.45357  18.63392
     151.70   3.180986     0.6933E-05  -7.36087  18.40218
     152.50   3.183270     0.1645E-04  -6.98571  17.46427
     153.50   3.186108     0.2804E-04  -6.75407  16.88518
     154.50   3.188928     0.2326E-04  -6.83520  17.08799
     155.50   3.191730     0.3966E-04  -6.60346  16.50865
     156.50   3.194514     0.3791E-04  -6.62301  16.55751
     157.50   3.197281     0.8016E-04  -6.29781  15.74453
     158.50   3.200029     0.9811E-04  -6.21006  15.52516
     159.50   3.202761     0.1160E-03  -6.13745  15.34364
     160.50   3.205475     0.1235E-03  -6.11014  15.27534
     161.50   3.208173     0.1349E-03  -6.07171  15.17928
     162.50   3.210853     0.1537E-03  -6.01522  15.03805
     163.50   3.213518     0.1880E-03  -5.92767  14.81917
     164.50   3.216166     0.2723E-03  -5.76680  14.41701
     165.50   3.218798     0.1836E-03  -5.93794  14.84485
     166.50   3.221414     0.3251E-03  -5.68981  14.22452
     167.20   3.223236     0.2256E-03  -5.84839  14.62098
     167.70   3.224533     0.9591E-03  -5.21990  13.04975
     168.50   3.226600     0.1074E-02  -5.17080  12.92700
     169.50   3.229170     0.1377E-02  -5.06294  12.65736
     170.50   3.231725     0.1473E-02  -5.03367  12.58417
     171.50   3.234264     0.1398E-02  -5.05626  12.64064
     172.50   3.236789     0.1872E-02  -4.92947  12.32367
     173.50   3.239300     0.2260E-02  -4.84764  12.11911
     174.50   3.241796     0.3193E-02  -4.69752  11.74381
     175.50   3.244277     0.4314E-02  -4.56694  11.41735
     176.50   3.246745     0.4128E-02  -4.58605  11.46512
     177.50   3.249198     0.4399E-02  -4.55839  11.39599
     178.50   3.251638     0.5977E-02  -4.42526  11.06315
     179.50   3.254065     0.7045E-02  -4.35390  10.88475
     180.50   3.256477     0.7924E-02  -4.30282  10.75705
     181.50   3.258877     0.7406E-02  -4.33220  10.83049
     182.50   3.261263     0.9764E-02  -4.21215  10.53038
     183.50   3.263636     0.1005E-01  -4.19971  10.49926
     184.50   3.265996     0.7797E-02  -4.30982  10.77456
     185.50   3.268344     0.1100E-01  -4.16031  10.40077
     186.50   3.270679     0.1311E-01  -4.08402  10.21005
     187.50   3.273001     0.1428E-01  -4.04715  10.11788
     188.50   3.275311     0.1548E-01  -4.01211  10.03027
     189.50   3.277609     0.2060E-01  -3.88783   9.71958
     190.50   3.279895     0.2009E-01  -3.89885   9.74712
     191.50   3.282169     0.2270E-01  -3.84567   9.61419
     192.50   3.284431     0.2307E-01  -3.83875   9.59687
     193.50   3.286681     0.1597E-01  -3.99855   9.99637
     194.50   3.288920     0.3018E-01  -3.72212   9.30530
     195.50   3.291147     0.3228E-01  -3.69281   9.23204
     196.70   3.293804     0.4186E-01  -3.58001   8.95002
     197.60   3.295787     0.4129E-01  -3.58597   8.96493
     198.40   3.297542     0.4761E-01  -3.52411   8.81027
     199.50   3.299943     0.4857E-01  -3.51540   8.78851
     200.50   3.302114     0.4816E-01  -3.51910   8.79774
     201.50   3.304275     0.5351E-01  -3.47338   8.68344
     202.50   3.306425     0.4407E-01  -3.55762   8.89406
     203.50   3.308564     0.6039E-01  -3.42082   8.55205
     204.50   3.310693     0.6963E-01  -3.35896   8.39739
     205.50   3.312812     0.7389E-01  -3.33317   8.33292
     206.50   3.314920     0.7424E-01  -3.33116   8.32791
     207.40   3.316809     0.7963E-01  -3.30071   8.25178
     207.80   3.317646     0.1851E+00  -2.93426   7.33566
     208.50   3.319106     0.2434E+00  -2.81553   7.03883
     209.50   3.321184     0.2307E+00  -2.83874   7.09684
     210.50   3.323252     0.2382E+00  -2.82482   7.06205
     211.50   3.325310     0.2798E+00  -2.75487   6.88717
     212.50   3.327359     0.2521E+00  -2.80013   7.00033
     213.50   3.329398     0.2677E+00  -2.77419   6.93547
     214.50   3.331427     0.3363E+00  -2.67508   6.68770
     215.50   3.333447     0.3153E+00  -2.70306   6.75765
     216.50   3.335458     0.2949E+00  -2.73212   6.83030
     217.50   3.337459     0.2931E+00  -2.73470   6.83674
     218.50   3.339452     0.3893E+00  -2.61149   6.52872
     219.50   3.341434     0.3894E+00  -2.61140   6.52850
     220.50   3.343409     0.3982E+00  -2.60172   6.50430
     221.50   3.345374     0.3155E+00  -2.70274   6.75685
     222.50   3.347330     0.3993E+00  -2.60043   6.50106
     223.50   3.349277     0.5604E+00  -2.45329   6.13322
     224.50   3.351216     0.5502E+00  -2.46126   6.15316
     225.50   3.353147     0.4436E+00  -2.55475   6.38687
     226.50   3.355068     0.3705E+00  -2.63296   6.58240
     227.50   3.356982     0.4225E+00  -2.57598   6.43994
     228.50   3.358886     0.6372E+00  -2.39752   5.99381
     229.50   3.360783     0.5211E+00  -2.48486   6.21216
     230.50   3.362671     0.6097E+00  -2.41665   6.04161
     231.50   3.364551     0.5594E+00  -2.45403   6.13509
     232.50   3.366423     0.5293E+00  -2.47805   6.19513
     233.50   3.368287     0.5215E+00  -2.48453   6.21131
     234.50   3.370143     0.3472E+00  -2.66116   6.65290
     235.50   3.371991     0.6079E+00  -2.41793   6.04482
     236.50   3.373831     0.4108E+00  -2.58812   6.47031
     237.50   3.375664     0.5177E+00  -2.48773   6.21932
     238.50   3.377488     0.3518E+00  -2.65549   6.63874
     239.50   3.379306     0.4360E+00  -2.56226   6.40565
     240.50   3.381115     0.4779E+00  -2.52242   6.30605
     241.50   3.382917     0.4759E+00  -2.52425   6.31063
     242.50   3.384712     0.7988E+00  -2.29933   5.74831
     243.50   3.386499     0.8589E+00  -2.26783   5.66956
     244.50   3.388279     0.1058E+01  -2.17746   5.44366
     245.50   3.390052     0.1155E+01  -2.13909   5.34773
     246.50   3.391817     0.9083E+00  -2.24356   5.60891
     247.50   3.393575     0.8163E+00  -2.28992   5.72479
     248.50   3.395326     0.3550E+00  -2.65157   6.62894
     249.50   3.397071     0.5435E+00  -2.46655   6.16637
     250.50   3.398808     0.9245E+00  -2.23589   5.58971
     251.30   3.400192     0.4306E+00  -2.56775   6.41936
     251.80   3.401056     0.3010E+00  -2.72323   6.80807
     252.50   3.402261     0.3509E+00  -2.65661   6.64152
     253.50   3.403978     0.7834E+00  -2.30777   5.76941
     254.50   3.405688     0.8354E+00  -2.27990   5.69975
     255.50   3.407391     0.2023E+01  -1.89581   4.73953
     256.50   3.409087     0.1380E+01  -2.06189   5.15472
     257.50   3.410777     0.1973E+01  -1.90658   4.76645
     258.50   3.412461     0.1762E+01  -1.95576   4.88940
     259.50   3.414137     0.1630E+01  -1.98952   4.97380
     260.50   3.415808     0.1465E+01  -2.03592   5.08979
     261.50   3.417472     0.1307E+01  -2.08559   5.21397
     262.50   3.419129     0.1864E+01  -1.93144   4.82861
     263.50   3.420781     0.3825E+01  -1.61911   4.04778
     264.50   3.422426     0.4992E+01  -1.50348   3.75871
     265.50   3.424065     0.8494E+01  -1.27267   3.18166
     266.50   3.425697     0.4477E+01  -1.55081   3.87704
     267.50   3.427324     0.5091E+01  -1.49497   3.73744
     268.50   3.428944     0.6498E+01  -1.38901   3.47251
     269.50   3.430559     0.4128E+01  -1.58600   3.96499
     270.50   3.432167     0.5783E+01  -1.43964   3.59911
     271.50   3.433770     0.3833E+01  -1.61828   4.04571
     272.50   3.435366     0.2371E+01  -1.82688   4.56720
     273.50   3.436957     0.3446E+01  -1.66450   4.16126
     274.50   3.438542     0.2127E+01  -1.87398   4.68496
     275.50   3.440122     0.3037E+01  -1.71926   4.29816
     276.50   3.441695     0.4184E+01  -1.58016   3.95040
     277.50   3.443263     0.4449E+01  -1.55348   3.88369
     278.50   3.444825     0.2602E+01  -1.78639   4.46597
     279.50   3.446382     0.1167E+01  -2.13472   5.33680
     280.50   3.447933     0.1446E+01  -2.04171   5.10428
     281.50   3.449478     0.3963E+01  -1.60378   4.00944
     282.50   3.451018     0.5676E+01  -1.44774   3.61934
     283.50   3.452553     0.4976E+01  -1.50492   3.76230
     284.50   3.454082     0.2867E+01  -1.74432   4.36081
     285.50   3.455606     0.1371E+01  -2.06490   5.16224
     286.50   3.457125     0.4423E+01  -1.55602   3.89004
     287.50   3.458638     0.7908E+01  -1.30371   3.25927
     288.50   3.460146     0.7396E+01  -1.33279   3.33197
     289.50   3.461648     0.1043E+02  -1.18354   2.95885
     291.00   3.463893     0.1571E+02  -1.00555   2.51387
     293.00   3.466868     0.1398E+02  -1.05631   2.64078
     295.00   3.469822     0.1303E+02  -1.08699   2.71748
     297.00   3.472756     0.1377E+02  -1.06280   2.65700
     299.00   3.475671     0.1437E+02  -1.04440   2.61099
     301.00   3.478566     0.1387E+02  -1.05969   2.64924
     303.00   3.481443     0.1602E+02  -0.99712   2.49279
     305.00   3.484300     0.1646E+02  -0.98543   2.46358
     307.00   3.487138     0.1841E+02  -0.93668   2.34170
     309.00   3.489959     0.1675E+02  -0.97769   2.44423
     311.00   3.492760     0.2148E+02  -0.86981   2.17452
     313.00   3.495544     0.1905E+02  -0.92194   2.30484
     315.00   3.498311     0.1970E+02  -0.90737   2.26842
     317.00   3.501059     0.2275E+02  -0.84487   2.11217
     319.00   3.503791     0.1881E+02  -0.92737   2.31844
     321.00   3.506505     0.2095E+02  -0.88069   2.20172
     323.00   3.509202     0.1744E+02  -0.96027   2.40068
     325.00   3.511883     0.2675E+02  -0.77444   1.93609
     327.00   3.514548     0.3203E+02  -0.69622   1.74056
     329.00   3.517196     0.3156E+02  -0.70259   1.75648
     331.00   3.519828     0.2854E+02  -0.74631   1.86578
     333.00   3.522444     0.3009E+02  -0.72341   1.80854
     335.00   3.525045     0.2909E+02  -0.73801   1.84502
     337.00   3.527630     0.2027E+02  -0.89497   2.23743
     339.00   3.530200     0.2383E+02  -0.82464   2.06160
     341.00   3.532754     0.2477E+02  -0.80790   2.01975
     343.00   3.535294     0.2634E+02  -0.78114   1.95285
     345.00   3.537819     0.2938E+02  -0.73379   1.83448
     347.00   3.540329     0.3094E+02  -0.71121   1.77804
     349.00   3.542825     0.3569E+02  -0.64922   1.62304
     351.00   3.545307     0.3830E+02  -0.61863   1.54657
     353.00   3.547775     0.3303E+02  -0.68292   1.70731
     355.00   3.550228     0.3771E+02  -0.62527   1.56317
     357.00   3.552668     0.2485E+02  -0.80639   2.01597
     359.00   3.555094     0.2678E+02  -0.77394   1.93485
     361.00   3.557507     0.3577E+02  -0.64821   1.62053
     363.00   3.559907     0.3824E+02  -0.61927   1.54818
     364.00   3.561101     0.3887E+02  -0.61219   1.53047
     365.00   3.562293     0.4358E+02  -0.56248   1.40620
     367.00   3.564666     0.4816E+02  -0.51908   1.29770
     369.00   3.567026     0.4127E+02  -0.58611   1.46529
     371.00   3.569374     0.4280E+02  -0.57032   1.42579
     373.00   3.571709     0.2483E+02  -0.80687   2.01717
     375.00   3.574031     0.2897E+02  -0.73990   1.84975
     377.00   3.576341     0.4121E+02  -0.58680   1.46700
     379.00   3.578639     0.4227E+02  -0.57578   1.43946
     381.00   3.580925     0.3750E+02  -0.62780   1.56949
     383.00   3.583199     0.1898E+02  -0.92351   2.30878
     385.00   3.585461     0.2643E+02  -0.77972   1.94930
     387.00   3.587711     0.2654E+02  -0.77794   1.94484
     389.00   3.589950     0.3883E+02  -0.61257   1.53143
     391.00   3.592177     0.4921E+02  -0.50973   1.27431
     393.00   3.594393     0.2201E+02  -0.85916   2.14791
     395.00   3.596597     0.4097E+02  -0.58928   1.47320
     397.00   3.598790     0.2798E+02  -0.75499   1.88748
     399.00   3.600973     0.6885E+02  -0.36389   0.90972
     401.00   3.603144     0.7820E+02  -0.30858   0.77146
     403.00   3.605305     0.7683E+02  -0.31622   0.79055
     405.00   3.607455     0.7310E+02  -0.33789   0.84472
     407.00   3.609594     0.6730E+02  -0.37376   0.93439
     409.00   3.611723     0.8980E+02  -0.24851   0.62126
     411.00   3.613842     0.8389E+02  -0.27807   0.69518
     413.00   3.615950     0.7900E+02  -0.30414   0.76034
     415.00   3.618048     0.7689E+02  -0.31590   0.78976
     417.00   3.620136     0.7857E+02  -0.30651   0.76626
     419.00   3.622214     0.7782E+02  -0.31070   0.77675
     421.00   3.624282     0.7902E+02  -0.30402   0.76004
     423.00   3.626340     0.7120E+02  -0.34928   0.87320
     425.00   3.628389     0.8197E+02  -0.28812   0.72029
     427.00   3.630428     0.7655E+02  -0.31781   0.79453
     429.00   3.632457     0.7176E+02  -0.34590   0.86475
     431.00   3.634477     0.6302E+02  -0.40230   1.00576
     433.00   3.636488     0.9740E+02  -0.21321   0.53302
     435.00   3.638489     0.9964E+02  -0.20335   0.50837
     437.00   3.640481     0.1087E+03  -0.16541   0.41353
     439.00   3.642465     0.9275E+02  -0.23444   0.58610
     441.00   3.644439     0.9854E+02  -0.20817   0.52044
     443.00   3.646404     0.1072E+03  -0.17148   0.42870
     445.00   3.648360     0.1096E+03  -0.16185   0.40463
     447.00   3.650307     0.1198E+03  -0.12327   0.30819
     449.00   3.652246     0.1244E+03  -0.10700   0.26751
     451.00   3.654176     0.1471E+03  -0.03406   0.08515
     453.00   3.656098     0.1234E+03  -0.11029   0.27572
     455.00   3.658011     0.1316E+03  -0.08244   0.20610
     457.00   3.659916     0.1458E+03  -0.03799   0.09498
     459.00   3.661813     0.1359E+03  -0.06853   0.17132
     461.00   3.663701     0.1403E+03  -0.05478   0.13696
     463.00   3.665581     0.1352E+03  -0.07070   0.17676
     465.00   3.667453     0.1377E+03  -0.06290   0.15725
     467.00   3.669317     0.1465E+03  -0.03599   0.08998
     469.00   3.671173     0.1432E+03  -0.04582   0.11454
     471.00   3.673021     0.1385E+03  -0.06039   0.15098
     473.00   3.674861     0.1441E+03  -0.04320   0.10801
     475.00   3.676694     0.1485E+03  -0.03010   0.07524
     477.00   3.678518     0.1440E+03  -0.04355   0.10888
     479.00   3.680336     0.1462E+03  -0.03671   0.09179
     481.00   3.682145     0.1471E+03  -0.03408   0.08519
     483.00   3.683947     0.1545E+03  -0.01287   0.03217
     485.00   3.685742     0.1463E+03  -0.03661   0.09153
     487.00   3.687529     0.1339E+03  -0.07494   0.18736
     489.00   3.689309     0.1495E+03  -0.02720   0.06799
     491.00   3.691082     0.1504E+03  -0.02450   0.06126
     493.00   3.692847     0.1469E+03  -0.03463   0.08657
     495.00   3.694605     0.1534E+03  -0.01608   0.04020
     497.00   3.696356     0.1454E+03  -0.03933   0.09834
     499.00   3.698101     0.1337E+03  -0.07566   0.18914
     501.00   3.699838     0.1238E+03  -0.10917   0.27293
     503.00   3.701568     0.1346E+03  -0.07275   0.18189
     505.00   3.703291     0.1344E+03  -0.07325   0.18312
     507.00   3.705008     0.1412E+03  -0.05205   0.13013
     509.00   3.706718     0.1317E+03  -0.08231   0.20577
     511.00   3.708421     0.1365E+03  -0.06679   0.16697
     513.00   3.710117     0.1308E+03  -0.08515   0.21287
     515.00   3.711807     0.1257E+03  -0.10256   0.25639
     517.00   3.713490     0.1084E+03  -0.16687   0.41718
     519.00   3.715167     0.1148E+03  -0.14181   0.35452
     521.00   3.716838     0.1294E+03  -0.08969   0.22423
     523.00   3.718502     0.1474E+03  -0.03328   0.08320
     525.00   3.720159     0.1566E+03  -0.00686   0.01715
     527.00   3.721811     0.1331E+03  -0.07746   0.19366
     529.00   3.723456     0.1614E+03   0.00605  -0.01513
     531.00   3.725095     0.1751E+03   0.04163  -0.10407
     533.00   3.726727     0.1477E+03  -0.03245   0.08111
     535.00   3.728354     0.1675E+03   0.02228  -0.05570
     537.00   3.729974     0.1657E+03   0.01750  -0.04376
     539.00   3.731589     0.1609E+03   0.00488  -0.01219
     541.00   3.733197     0.1590E+03  -0.00038   0.00095
     543.00   3.734800     0.1621E+03   0.00805  -0.02013
     545.00   3.736397     0.1648E+03   0.01516  -0.03790
     547.00   3.737987     0.1603E+03   0.00316  -0.00790
     549.00   3.739572     0.1617E+03   0.00706  -0.01765
     551.00   3.741152     0.1591E+03   0.00000   0.00000
     553.00   3.742725     0.1682E+03   0.02412  -0.06030
     555.00   3.744293     0.1723E+03   0.03442  -0.08605
     557.00   3.745855     0.1686E+03   0.02515  -0.06288
     559.00   3.747412     0.1627E+03   0.00962  -0.02406
     561.00   3.748963     0.1692E+03   0.02673  -0.06683
     563.00   3.750508     0.1679E+03   0.02335  -0.05838
