age =   15.0    [Fe/H] =   -0.25

wavele(nm) log wave(A)   Hlam       log(Hlam/Hlam(V))  Hlam(mag(V)) 
      89.50   2.951823     0.9124E-13 -15.18638  37.96596
      90.50   2.956649     0.1887E-12 -14.87074  37.17686
      91.50   2.961421     0.2953E-12 -14.67631  36.69078
      92.50   2.966142     0.2775E-10 -12.70334  31.75834
      93.50   2.970812     0.3842E-10 -12.56201  31.40502
      94.50   2.975432     0.5545E-10 -12.40270  31.00675
      95.50   2.980003     0.8334E-10 -12.22573  30.56433
      96.50   2.984527     0.1215E-09 -12.06202  30.15505
      97.50   2.989005     0.1607E-09 -11.94045  29.85113
      98.50   2.993436     0.2283E-09 -11.78805  29.47013
      99.50   2.997823     0.3120E-09 -11.65244  29.13110
     100.50   3.002166     0.4580E-09 -11.48574  28.71434
     101.50   3.006466     0.6192E-09 -11.35473  28.38682
     102.50   3.010724     0.7003E-09 -11.30125  28.25313
     103.50   3.014940     0.1163E-08 -11.08089  27.70222
     104.50   3.019116     0.1609E-08 -10.94009  27.35023
     105.50   3.023252     0.2033E-08 -10.83834  27.09585
     106.50   3.027350     0.2756E-08 -10.70635  26.76588
     107.50   3.031409     0.3708E-08 -10.57744  26.44360
     108.50   3.035430     0.4999E-08 -10.44766  26.11914
     109.50   3.039414     0.6250E-08 -10.35069  25.87673
     110.50   3.043362     0.3252E-07  -9.63442  24.08605
     111.50   3.047275     0.5752E-07  -9.38675  23.46688
     112.50   3.051152     0.8721E-07  -9.20602  23.01506
     113.50   3.054996     0.1332E-06  -9.02193  22.55482
     114.50   3.058805     0.1772E-06  -8.89820  22.24551
     115.50   3.062582     0.2057E-06  -8.83328  22.08321
     116.50   3.066326     0.2731E-06  -8.71027  21.77568
     117.50   3.070038     0.3491E-06  -8.60358  21.50896
     118.50   3.073718     0.3672E-06  -8.58162  21.45405
     119.50   3.077368     0.2870E-06  -8.68863  21.72157
     120.50   3.080987     0.2682E-06  -8.71805  21.79512
     121.50   3.084576     0.5821E-07  -9.38156  23.45390
     122.50   3.088136     0.3580E-06  -8.59269  21.48172
     123.50   3.091667     0.8635E-06  -8.21031  20.52576
     124.50   3.095169     0.1365E-05  -8.01131  20.02828
     125.50   3.098644     0.1778E-05  -7.89663  19.74158
     126.50   3.102091     0.1977E-05  -7.85065  19.62662
     127.50   3.105510     0.2515E-05  -7.74599  19.36498
     128.50   3.108903     0.2997E-05  -7.66992  19.17479
     129.50   3.112270     0.3635E-05  -7.58610  18.96526
     130.50   3.115611     0.3928E-05  -7.55234  18.88086
     131.50   3.118926     0.4936E-05  -7.45315  18.63288
     132.50   3.122216     0.5278E-05  -7.42413  18.56033
     133.50   3.125481     0.5887E-05  -7.37664  18.44160
     134.50   3.128722     0.6961E-05  -7.30391  18.25977
     135.50   3.131939     0.8042E-05  -7.24119  18.10297
     136.50   3.135133     0.8731E-05  -7.20548  18.01369
     137.50   3.138303     0.9431E-05  -7.17201  17.93003
     138.50   3.141450     0.1036E-04  -7.13112  17.82780
     139.50   3.144574     0.1173E-04  -7.07723  17.69307
     140.50   3.147676     0.1407E-04  -6.99813  17.49532
     141.50   3.150756     0.1604E-04  -6.94133  17.35333
     142.50   3.153815     0.1829E-04  -6.88443  17.21108
     143.50   3.156852     0.2156E-04  -6.81291  17.03227
     144.20   3.158965     0.2804E-04  -6.69875  16.74688
     144.70   3.160469     0.2507E-04  -6.74745  16.86863
     145.50   3.162863     0.2960E-04  -6.67528  16.68821
     146.50   3.165838     0.3733E-04  -6.57455  16.43638
     147.50   3.168792     0.4253E-04  -6.51792  16.29479
     148.50   3.171726     0.4577E-04  -6.48597  16.21493
     149.50   3.174641     0.6003E-04  -6.36822  15.92055
     150.50   3.177536     0.7284E-04  -6.28418  15.71045
     151.20   3.179552     0.5559E-04  -6.40154  16.00386
     151.70   3.180986     0.7050E-04  -6.29838  15.74595
     152.50   3.183270     0.1561E-03  -5.95329  14.88322
     153.50   3.186108     0.2477E-03  -5.75260  14.38150
     154.50   3.188928     0.2066E-03  -5.83151  14.57878
     155.50   3.191730     0.3270E-03  -5.63208  14.08020
     156.50   3.194514     0.3099E-03  -5.65541  14.13851
     157.50   3.197281     0.5492E-03  -5.40681  13.51704
     158.50   3.200029     0.6629E-03  -5.32509  13.31274
     159.50   3.202761     0.7725E-03  -5.25869  13.14673
     160.50   3.205475     0.8272E-03  -5.22894  13.07235
     161.50   3.208173     0.9279E-03  -5.17905  12.94762
     162.50   3.210853     0.1028E-02  -5.13449  12.83622
     163.50   3.213518     0.1212E-02  -5.06309  12.65773
     164.50   3.216166     0.1692E-02  -4.91813  12.29532
     165.50   3.218798     0.1106E-02  -5.10287  12.75718
     166.50   3.221414     0.1947E-02  -4.85723  12.14308
     167.20   3.223236     0.1402E-02  -4.99976  12.49939
     167.70   3.224533     0.5086E-02  -4.44020  11.10051
     168.50   3.226600     0.5498E-02  -4.40633  11.01581
     169.50   3.229170     0.6581E-02  -4.32825  10.82063
     170.50   3.231725     0.7468E-02  -4.27337  10.68343
     171.50   3.234264     0.8553E-02  -4.21446  10.53614
     172.50   3.236789     0.1071E-01  -4.11663  10.29157
     173.50   3.239300     0.1385E-01  -4.00508  10.01271
     174.50   3.241796     0.1833E-01  -3.88342   9.70854
     175.50   3.244277     0.2677E-01  -3.71899   9.29748
     176.50   3.246745     0.2179E-01  -3.80840   9.52099
     177.50   3.249198     0.2613E-01  -3.72943   9.32358
     178.50   3.251638     0.3503E-01  -3.60209   9.00521
     179.50   3.254065     0.4785E-01  -3.46665   8.66664
     180.50   3.256477     0.4974E-01  -3.44987   8.62468
     181.50   3.258877     0.4207E-01  -3.52255   8.80638
     182.50   3.261263     0.5404E-01  -3.41386   8.53464
     183.50   3.263636     0.5570E-01  -3.40068   8.50171
     184.50   3.265996     0.3377E-01  -3.61801   9.04502
     185.50   3.268344     0.6417E-01  -3.33926   8.34814
     186.50   3.270679     0.8288E-01  -3.22810   8.07025
     187.50   3.273001     0.8607E-01  -3.21172   8.02930
     188.50   3.275311     0.9239E-01  -3.18092   7.95231
     189.50   3.277609     0.1246E+00  -3.05113   7.62782
     190.50   3.279895     0.1176E+00  -3.07608   7.69019
     191.50   3.282169     0.1334E+00  -3.02131   7.55327
     192.50   3.284431     0.1165E+00  -3.08016   7.70040
     193.50   3.286681     0.6547E-01  -3.33050   8.32624
     194.50   3.288920     0.1671E+00  -2.92352   7.30879
     195.50   3.291147     0.1751E+00  -2.90323   7.25806
     196.70   3.293804     0.2381E+00  -2.76972   6.92429
     197.60   3.295787     0.2040E+00  -2.83686   7.09214
     198.40   3.297542     0.2611E+00  -2.72979   6.82448
     199.50   3.299943     0.2858E+00  -2.69054   6.72636
     200.50   3.302114     0.2654E+00  -2.72259   6.80649
     201.50   3.304275     0.2929E+00  -2.67981   6.69953
     202.50   3.306425     0.2102E+00  -2.82385   7.05964
     203.50   3.308564     0.3285E+00  -2.63000   6.57500
     204.50   3.310693     0.3870E+00  -2.55885   6.39713
     205.50   3.312812     0.3768E+00  -2.57040   6.42599
     206.50   3.314920     0.3660E+00  -2.58310   6.45776
     207.40   3.316809     0.4105E+00  -2.53329   6.33323
     207.80   3.317646     0.1173E+01  -2.07741   5.19353
     208.50   3.319106     0.1549E+01  -1.95649   4.89122
     209.50   3.321184     0.1391E+01  -2.00316   5.00789
     210.50   3.323252     0.1342E+01  -2.01871   5.04679
     211.50   3.325310     0.1630E+01  -1.93427   4.83569
     212.50   3.327359     0.1373E+01  -2.00894   5.02234
     213.50   3.329398     0.1352E+01  -2.01565   5.03912
     214.50   3.331427     0.1847E+01  -1.88002   4.70005
     215.50   3.333447     0.1754E+01  -1.90253   4.75631
     216.50   3.335458     0.1448E+01  -1.98587   4.96467
     217.50   3.337459     0.1453E+01  -1.98426   4.96064
     218.50   3.339452     0.2106E+01  -1.82307   4.55767
     219.50   3.341434     0.2015E+01  -1.84233   4.60582
     220.50   3.343409     0.1985E+01  -1.84880   4.62200
     221.50   3.345374     0.1421E+01  -1.99410   4.98525
     222.50   3.347330     0.1875E+01  -1.87363   4.68407
     223.50   3.349277     0.2689E+01  -1.71698   4.29245
     224.50   3.351216     0.2546E+01  -1.74071   4.35179
     225.50   3.353147     0.1774E+01  -1.89770   4.74424
     226.50   3.355068     0.1519E+01  -1.96513   4.91283
     227.50   3.356982     0.1652E+01  -1.92859   4.82147
     228.50   3.358886     0.2635E+01  -1.72582   4.31455
     229.50   3.360783     0.2028E+01  -1.83952   4.59880
     230.50   3.362671     0.2670E+01  -1.72001   4.30002
     231.50   3.364551     0.2177E+01  -1.80869   4.52174
     232.50   3.366423     0.1820E+01  -1.88658   4.71645
     233.50   3.368287     0.1518E+01  -1.96539   4.91348
     234.50   3.370143     0.9025E+00  -2.19110   5.47775
     235.50   3.371991     0.2098E+01  -1.82472   4.56179
     236.50   3.373831     0.1063E+01  -2.11995   5.29988
     237.50   3.375664     0.1498E+01  -1.97118   4.92796
     238.50   3.377488     0.7791E+00  -2.25496   5.63740
     239.50   3.379306     0.1047E+01  -2.12651   5.31626
     240.50   3.381115     0.1085E+01  -2.11128   5.27819
     241.50   3.382917     0.1334E+01  -2.02137   5.05342
     242.50   3.384712     0.2713E+01  -1.71313   4.28282
     243.50   3.386499     0.2752E+01  -1.70690   4.26725
     244.50   3.388279     0.3447E+01  -1.60907   4.02269
     245.50   3.390052     0.3736E+01  -1.57415   3.93538
     246.50   3.391817     0.2986E+01  -1.67142   4.17854
     247.50   3.393575     0.2512E+01  -1.74662   4.36656
     248.50   3.395326     0.1062E+01  -2.12033   5.30082
     249.50   3.397071     0.1660E+01  -1.92650   4.81625
     250.50   3.398808     0.2915E+01  -1.68191   4.20477
     251.30   3.400192     0.1000E+01  -2.14657   5.36642
     251.80   3.401056     0.6719E+00  -2.31929   5.79823
     252.50   3.402261     0.8224E+00  -2.23146   5.57866
     253.50   3.403978     0.1941E+01  -1.85858   4.64645
     254.50   3.405688     0.2051E+01  -1.83458   4.58646
     255.50   3.407391     0.4637E+01  -1.48028   3.70070
     256.50   3.409087     0.3163E+01  -1.64651   4.11627
     257.50   3.410777     0.4384E+01  -1.50472   3.76181
     258.50   3.412461     0.3738E+01  -1.57389   3.93473
     259.50   3.414137     0.3280E+01  -1.63073   4.07682
     260.50   3.415808     0.2707E+01  -1.71404   4.28511
     261.50   3.417472     0.2374E+01  -1.77113   4.42782
     262.50   3.419129     0.3508E+01  -1.60148   4.00371
     263.50   3.420781     0.7174E+01  -1.29081   3.22704
     264.50   3.422426     0.9861E+01  -1.15265   2.88163
     265.50   3.424065     0.1474E+02  -0.97809   2.44522
     266.50   3.425697     0.8906E+01  -1.19686   2.99215
     267.50   3.427324     0.1015E+02  -1.14006   2.85015
     268.50   3.428944     0.1226E+02  -1.05805   2.64512
     269.50   3.430559     0.8146E+01  -1.23562   3.08906
     270.50   3.432167     0.1057E+02  -1.12254   2.80635
     271.50   3.433770     0.7110E+01  -1.29468   3.23669
     272.50   3.435366     0.4981E+01  -1.44921   3.62303
     273.50   3.436957     0.6963E+01  -1.30377   3.25941
     274.50   3.438542     0.3705E+01  -1.57781   3.94452
     275.50   3.440122     0.5549E+01  -1.40235   3.50588
     276.50   3.441695     0.7747E+01  -1.25745   3.14363
     277.50   3.443263     0.8153E+01  -1.23523   3.08807
     278.50   3.444825     0.4305E+01  -1.51255   3.78138
     279.50   3.446382     0.1719E+01  -1.91125   4.77812
     280.50   3.447933     0.2155E+01  -1.81316   4.53289
     281.50   3.449478     0.6865E+01  -1.30995   3.27488
     282.50   3.451018     0.1050E+02  -1.12536   2.81339
     283.50   3.452553     0.9381E+01  -1.17433   2.93583
     284.50   3.454082     0.5676E+01  -1.39256   3.48139
     285.50   3.455606     0.2688E+01  -1.71720   4.29300
     286.50   3.457125     0.8733E+01  -1.20542   3.01356
     287.50   3.458638     0.1354E+02  -1.01502   2.53755
     288.50   3.460146     0.1239E+02  -1.05365   2.63412
     289.50   3.461648     0.1632E+02  -0.93376   2.33439
     291.00   3.463893     0.2339E+02  -0.77748   1.94370
     293.00   3.466868     0.2112E+02  -0.82178   2.05445
     295.00   3.469822     0.2000E+02  -0.84554   2.11386
     297.00   3.472756     0.2091E+02  -0.82628   2.06570
     299.00   3.475671     0.2194E+02  -0.80525   2.01312
     301.00   3.478566     0.2193E+02  -0.80557   2.01393
     303.00   3.481443     0.2399E+02  -0.76657   1.91642
     305.00   3.484300     0.2514E+02  -0.74623   1.86557
     307.00   3.487138     0.2593E+02  -0.73281   1.83203
     309.00   3.489959     0.2344E+02  -0.77662   1.94156
     311.00   3.492760     0.2820E+02  -0.69639   1.74098
     313.00   3.495544     0.2537E+02  -0.74220   1.85551
     315.00   3.498311     0.2517E+02  -0.74569   1.86423
     317.00   3.501059     0.2884E+02  -0.68652   1.71629
     319.00   3.503791     0.2492E+02  -0.75004   1.87511
     321.00   3.506505     0.2775E+02  -0.70330   1.75824
     323.00   3.509202     0.2377E+02  -0.77047   1.92617
     325.00   3.511883     0.3452E+02  -0.60852   1.52130
     327.00   3.514548     0.4048E+02  -0.53934   1.34836
     329.00   3.517196     0.3962E+02  -0.54866   1.37165
     331.00   3.519828     0.3628E+02  -0.58692   1.46731
     333.00   3.522444     0.3764E+02  -0.57096   1.42739
     335.00   3.525045     0.3626E+02  -0.58714   1.46784
     337.00   3.527630     0.2557E+02  -0.73885   1.84712
     339.00   3.530200     0.3048E+02  -0.66249   1.65622
     341.00   3.532754     0.3191E+02  -0.64266   1.60664
     343.00   3.535294     0.3496E+02  -0.60300   1.50751
     345.00   3.537819     0.3789E+02  -0.56807   1.42017
     347.00   3.540329     0.3970E+02  -0.54777   1.36943
     349.00   3.542825     0.4475E+02  -0.49580   1.23950
     351.00   3.545307     0.4783E+02  -0.46691   1.16727
     353.00   3.547775     0.4274E+02  -0.51577   1.28944
     355.00   3.550228     0.4901E+02  -0.45631   1.14077
     357.00   3.552668     0.3521E+02  -0.59995   1.49988
     359.00   3.555094     0.3618E+02  -0.58808   1.47019
     361.00   3.557507     0.4546E+02  -0.48891   1.22228
     363.00   3.559907     0.4680E+02  -0.47633   1.19082
     364.00   3.561101     0.4803E+02  -0.46503   1.16257
     365.00   3.562293     0.5190E+02  -0.43141   1.07852
     367.00   3.564666     0.5580E+02  -0.39990   0.99975
     369.00   3.567026     0.5001E+02  -0.44749   1.11873
     371.00   3.569374     0.5248E+02  -0.42660   1.06650
     373.00   3.571709     0.3360E+02  -0.62028   1.55069
     375.00   3.574031     0.3870E+02  -0.55884   1.39709
     377.00   3.576341     0.5156E+02  -0.43424   1.08560
     379.00   3.578639     0.5307E+02  -0.42173   1.05432
     381.00   3.580925     0.4967E+02  -0.45050   1.12624
     383.00   3.583199     0.2712E+02  -0.71322   1.78305
     385.00   3.585461     0.3855E+02  -0.56056   1.40140
     387.00   3.587711     0.3767E+02  -0.57054   1.42635
     389.00   3.589950     0.4774E+02  -0.46767   1.16917
     391.00   3.592177     0.5828E+02  -0.38105   0.95262
     393.00   3.594393     0.2778E+02  -0.70283   1.75708
     395.00   3.596597     0.5107E+02  -0.43837   1.09592
     397.00   3.598790     0.3502E+02  -0.60225   1.50563
     399.00   3.600973     0.7665E+02  -0.26208   0.65519
     401.00   3.603144     0.8436E+02  -0.22044   0.55110
     403.00   3.605305     0.8292E+02  -0.22790   0.56976
     405.00   3.607455     0.7964E+02  -0.24543   0.61358
     407.00   3.609594     0.7520E+02  -0.27035   0.67587
     409.00   3.611723     0.9305E+02  -0.17785   0.44461
     411.00   3.613842     0.8741E+02  -0.20501   0.51253
     413.00   3.615950     0.8538E+02  -0.21523   0.53808
     415.00   3.618048     0.8316E+02  -0.22663   0.56658
     417.00   3.620136     0.8501E+02  -0.21707   0.54268
     419.00   3.622214     0.8235E+02  -0.23089   0.57723
     421.00   3.624282     0.8306E+02  -0.22716   0.56789
     423.00   3.626340     0.7832E+02  -0.25268   0.63170
     425.00   3.628389     0.8302E+02  -0.22737   0.56843
     427.00   3.630428     0.7801E+02  -0.25444   0.63609
     429.00   3.632457     0.7256E+02  -0.28584   0.71460
     431.00   3.634477     0.6204E+02  -0.35388   0.88469
     433.00   3.636488     0.9370E+02  -0.17483   0.43707
     435.00   3.638489     0.9301E+02  -0.17804   0.44511
     437.00   3.640481     0.1004E+03  -0.14485   0.36214
     439.00   3.642465     0.8926E+02  -0.19592   0.48980
     441.00   3.644439     0.9569E+02  -0.16570   0.41424
     443.00   3.646404     0.1047E+03  -0.12660   0.31649
     445.00   3.648360     0.1053E+03  -0.12427   0.31069
     447.00   3.650307     0.1128E+03  -0.09444   0.23609
     449.00   3.652246     0.1162E+03  -0.08152   0.20381
     451.00   3.654176     0.1312E+03  -0.02847   0.07118
     453.00   3.656098     0.1156E+03  -0.08374   0.20935
     455.00   3.658011     0.1216E+03  -0.06174   0.15435
     457.00   3.659916     0.1312E+03  -0.02854   0.07134
     459.00   3.661813     0.1235E+03  -0.05489   0.13722
     461.00   3.663701     0.1278E+03  -0.04005   0.10013
     463.00   3.665581     0.1252E+03  -0.04893   0.12231
     465.00   3.667453     0.1266E+03  -0.04413   0.11032
     467.00   3.669317     0.1321E+03  -0.02572   0.06431
     469.00   3.671173     0.1298E+03  -0.03329   0.08322
     471.00   3.673021     0.1271E+03  -0.04258   0.10645
     473.00   3.674861     0.1308E+03  -0.02987   0.07468
     475.00   3.676694     0.1338E+03  -0.02011   0.05028
     477.00   3.678518     0.1307E+03  -0.03019   0.07548
     479.00   3.680336     0.1318E+03  -0.02650   0.06624
     481.00   3.682145     0.1327E+03  -0.02373   0.05931
     483.00   3.683947     0.1363E+03  -0.01210   0.03025
     485.00   3.685742     0.1311E+03  -0.02890   0.07225
     487.00   3.687529     0.1211E+03  -0.06359   0.15897
     489.00   3.689309     0.1331E+03  -0.02230   0.05575
     491.00   3.691082     0.1341E+03  -0.01916   0.04789
     493.00   3.692847     0.1318E+03  -0.02655   0.06638
     495.00   3.694605     0.1366E+03  -0.01119   0.02797
     497.00   3.696356     0.1323E+03  -0.02494   0.06236
     499.00   3.698101     0.1237E+03  -0.05433   0.13582
     501.00   3.699838     0.1171E+03  -0.07819   0.19548
     503.00   3.701568     0.1248E+03  -0.05026   0.12566
     505.00   3.703291     0.1245E+03  -0.05122   0.12806
     507.00   3.705008     0.1298E+03  -0.03323   0.08306
     509.00   3.706718     0.1236E+03  -0.05469   0.13672
     511.00   3.708421     0.1263E+03  -0.04509   0.11274
     513.00   3.710117     0.1230E+03  -0.05660   0.14150
     515.00   3.711807     0.1186E+03  -0.07234   0.18085
     517.00   3.713490     0.1071E+03  -0.11693   0.29232
     519.00   3.715167     0.1116E+03  -0.09883   0.24709
     521.00   3.716838     0.1210E+03  -0.06382   0.15954
     523.00   3.718502     0.1323E+03  -0.02511   0.06277
     525.00   3.720159     0.1381E+03  -0.00652   0.01631
     527.00   3.721811     0.1219E+03  -0.06070   0.15174
     529.00   3.723456     0.1407E+03   0.00174  -0.00435
     531.00   3.725095     0.1489E+03   0.02633  -0.06582
     533.00   3.726727     0.1322E+03  -0.02543   0.06357
     535.00   3.728354     0.1448E+03   0.01427  -0.03567
     537.00   3.729974     0.1433E+03   0.00969  -0.02422
     539.00   3.731589     0.1409E+03   0.00234  -0.00585
     541.00   3.733197     0.1387E+03  -0.00454   0.01134
     543.00   3.734800     0.1408E+03   0.00193  -0.00481
     545.00   3.736397     0.1432E+03   0.00951  -0.02377
     547.00   3.737987     0.1405E+03   0.00101  -0.00252
     549.00   3.739572     0.1422E+03   0.00627  -0.01566
     551.00   3.741152     0.1401E+03   0.00000   0.00000
     553.00   3.742725     0.1453E+03   0.01557  -0.03892
     555.00   3.744293     0.1478E+03   0.02302  -0.05755
     557.00   3.745855     0.1443E+03   0.01269  -0.03172
     559.00   3.747412     0.1408E+03   0.00208  -0.00521
     561.00   3.748963     0.1451E+03   0.01501  -0.03751
