age =   13.0    [Fe/H] =    0.00

wavele(nm) log wave(A)   Hlam       log(Hlam/Hlam(V))  Hlam(mag(V)) 
      89.50   2.951823     0.9263E-13 -15.19741  37.99353
      90.50   2.956649     0.1513E-12 -14.98426  37.46065
      91.50   2.961421     0.2371E-12 -14.78929  36.97322
      92.50   2.966142     0.9867E-11 -13.16998  32.92496
      93.50   2.970812     0.1381E-10 -13.02394  32.55986
      94.50   2.975432     0.2023E-10 -12.85829  32.14572
      95.50   2.980003     0.3086E-10 -12.67472  31.68680
      96.50   2.984527     0.4567E-10 -12.50451  31.26128
      97.50   2.989005     0.6146E-10 -12.37562  30.93905
      98.50   2.993436     0.8716E-10 -12.22388  30.55970
      99.50   2.997823     0.1197E-09 -12.08621  30.21552
     100.50   3.002166     0.1790E-09 -11.91123  29.77808
     101.50   3.006466     0.2453E-09 -11.77442  29.43605
     102.50   3.010724     0.2861E-09 -11.70767  29.26918
     103.50   3.014940     0.4702E-09 -11.49194  28.72985
     104.50   3.019116     0.6532E-09 -11.34916  28.37289
     105.50   3.023252     0.8357E-09 -11.24213  28.10532
     106.50   3.027350     0.1138E-08 -11.10800  27.77001
     107.50   3.031409     0.1546E-08 -10.97504  27.43759
     108.50   3.035430     0.2090E-08 -10.84399  27.10997
     109.50   3.039414     0.2627E-08 -10.74466  26.86164
     110.50   3.043362     0.9906E-08 -10.16829  25.42071
     111.50   3.047275     0.1646E-07  -9.94772  24.86931
     112.50   3.051152     0.2429E-07  -9.77867  24.44667
     113.50   3.054996     0.3616E-07  -9.60594  24.01485
     114.50   3.058805     0.4856E-07  -9.47793  23.69484
     115.50   3.062582     0.5770E-07  -9.40302  23.50756
     116.50   3.066326     0.7855E-07  -9.26903  23.17257
     117.50   3.070038     0.1020E-06  -9.15560  22.88899
     118.50   3.073718     0.1147E-06  -9.10480  22.76200
     119.50   3.077368     0.1019E-06  -9.15586  22.88965
     120.50   3.080987     0.1140E-06  -9.10740  22.76851
     121.50   3.084576     0.3076E-07  -9.67624  24.19061
     122.50   3.088136     0.1570E-06  -8.96832  22.42081
     123.50   3.091667     0.2974E-06  -8.69090  21.72725
     124.50   3.095169     0.4033E-06  -8.55851  21.39627
     125.50   3.098644     0.4860E-06  -8.47757  21.19392
     126.50   3.102091     0.5304E-06  -8.43961  21.09903
     127.50   3.105510     0.6503E-06  -8.35107  20.87767
     128.50   3.108903     0.7349E-06  -8.29796  20.74490
     129.50   3.112270     0.8968E-06  -8.21149  20.52872
     130.50   3.115611     0.9491E-06  -8.18685  20.46714
     131.50   3.118926     0.1189E-05  -8.08913  20.22283
     132.50   3.122216     0.1243E-05  -8.06971  20.17427
     133.50   3.125481     0.1393E-05  -8.02018  20.05045
     134.50   3.128722     0.1653E-05  -7.94578  19.86444
     135.50   3.131939     0.1941E-05  -7.87611  19.69027
     136.50   3.135133     0.2092E-05  -7.84361  19.60902
     137.50   3.138303     0.2280E-05  -7.80623  19.51557
     138.50   3.141450     0.2526E-05  -7.76178  19.40444
     139.50   3.144574     0.2859E-05  -7.70794  19.26986
     140.50   3.147676     0.3507E-05  -7.61925  19.04813
     141.50   3.150756     0.4018E-05  -7.56019  18.90048
     142.50   3.153815     0.4668E-05  -7.49505  18.73763
     143.50   3.156852     0.5599E-05  -7.41605  18.54012
     144.20   3.158965     0.7249E-05  -7.30387  18.25969
     144.70   3.160469     0.6537E-05  -7.34878  18.37196
     145.50   3.162863     0.7706E-05  -7.27735  18.19337
     146.50   3.165838     0.9975E-05  -7.16526  17.91315
     147.50   3.168792     0.1146E-04  -7.10517  17.76293
     148.50   3.171726     0.1238E-04  -7.07152  17.67880
     149.50   3.174641     0.1627E-04  -6.95289  17.38224
     150.50   3.177536     0.1999E-04  -6.86335  17.15836
     151.20   3.179552     0.1516E-04  -6.98348  17.45869
     151.70   3.180986     0.1946E-04  -6.87500  17.18750
     152.50   3.183270     0.4836E-04  -6.47967  16.19917
     153.50   3.186108     0.8181E-04  -6.25135  15.62837
     154.50   3.188928     0.6698E-04  -6.33823  15.84557
     155.50   3.191730     0.1133E-03  -6.10985  15.27463
     156.50   3.194514     0.1068E-03  -6.13568  15.33921
     157.50   3.197281     0.2066E-03  -5.84912  14.62281
     158.50   3.200029     0.2523E-03  -5.76234  14.40586
     159.50   3.202761     0.2966E-03  -5.69205  14.23012
     160.50   3.205475     0.3180E-03  -5.66175  14.15437
     161.50   3.208173     0.3496E-03  -5.62057  14.05143
     162.50   3.210853     0.3953E-03  -5.56720  13.91800
     163.50   3.213518     0.4673E-03  -5.49456  13.73640
     164.50   3.216166     0.6689E-03  -5.33880  13.34699
     165.50   3.218798     0.4342E-03  -5.52654  13.81635
     166.50   3.221414     0.7798E-03  -5.27221  13.18052
     167.20   3.223236     0.5462E-03  -5.42682  13.56704
     167.70   3.224533     0.2104E-02  -4.84106  12.10265
     168.50   3.226600     0.2375E-02  -4.78843  11.97108
     169.50   3.229170     0.2985E-02  -4.68924  11.72309
     170.50   3.231725     0.3217E-02  -4.65679  11.64197
     171.50   3.234264     0.3044E-02  -4.68079  11.70199
     172.50   3.236789     0.3940E-02  -4.56873  11.42182
     173.50   3.239300     0.4717E-02  -4.49048  11.22619
     174.50   3.241796     0.6541E-02  -4.34856  10.87139
     175.50   3.244277     0.8866E-02  -4.21643  10.54107
     176.50   3.246745     0.8303E-02  -4.24492  10.61231
     177.50   3.249198     0.9045E-02  -4.20778  10.51944
     178.50   3.251638     0.1199E-01  -4.08549  10.21373
     179.50   3.254065     0.1457E-01  -4.00073  10.00181
     180.50   3.256477     0.1559E-01  -3.97138   9.92844
     181.50   3.258877     0.1460E-01  -3.99991   9.99978
     182.50   3.261263     0.1857E-01  -3.89529   9.73823
     183.50   3.263636     0.1943E-01  -3.87577   9.68943
     184.50   3.265996     0.1493E-01  -3.99013   9.97533
     185.50   3.268344     0.2152E-01  -3.83140   9.57850
     186.50   3.270679     0.2551E-01  -3.75749   9.39372
     187.50   3.273001     0.2762E-01  -3.72290   9.30726
     188.50   3.275311     0.2973E-01  -3.69092   9.22730
     189.50   3.277609     0.3900E-01  -3.57310   8.93274
     190.50   3.279895     0.3807E-01  -3.58359   8.95899
     191.50   3.282169     0.4269E-01  -3.53390   8.83474
     192.50   3.284431     0.4310E-01  -3.52967   8.82418
     193.50   3.286681     0.3095E-01  -3.67348   9.18370
     194.50   3.288920     0.5628E-01  -3.41385   8.53462
     195.50   3.291147     0.5928E-01  -3.39126   8.47815
     196.70   3.293804     0.7700E-01  -3.27770   8.19424
     197.60   3.295787     0.7370E-01  -3.29674   8.24185
     198.40   3.297542     0.8735E-01  -3.22291   8.05727
     199.50   3.299943     0.9077E-01  -3.20623   8.01556
     200.50   3.302114     0.8894E-01  -3.21506   8.03766
     201.50   3.304275     0.9811E-01  -3.17247   7.93119
     202.50   3.306425     0.8051E-01  -3.25831   8.14578
     203.50   3.308564     0.1112E+00  -3.11822   7.79556
     204.50   3.310693     0.1287E+00  -3.05453   7.63633
     205.50   3.312812     0.1336E+00  -3.03839   7.59598
     206.50   3.314920     0.1338E+00  -3.03769   7.59424
     207.40   3.316809     0.1457E+00  -3.00072   7.50179
     207.80   3.317646     0.4406E+00  -2.52011   6.30028
     208.50   3.319106     0.6117E+00  -2.37764   5.94411
     209.50   3.321184     0.5607E+00  -2.41543   6.03859
     210.50   3.323252     0.5647E+00  -2.41237   6.03092
     211.50   3.325310     0.6783E+00  -2.33277   5.83192
     212.50   3.327359     0.5947E+00  -2.38985   5.97464
     213.50   3.329398     0.5991E+00  -2.38668   5.96671
     214.50   3.331427     0.8132E+00  -2.25398   5.63494
     215.50   3.333447     0.7603E+00  -2.28321   5.70802
     216.50   3.335458     0.6543E+00  -2.34837   5.87094
     217.50   3.337459     0.6416E+00  -2.35691   5.89227
     218.50   3.339452     0.9544E+00  -2.18446   5.46115
     219.50   3.341434     0.8879E+00  -2.21580   5.53949
     220.50   3.343409     0.9026E+00  -2.20870   5.52176
     221.50   3.345374     0.6492E+00  -2.35180   5.87950
     222.50   3.347330     0.8675E+00  -2.22590   5.56474
     223.50   3.349277     0.1278E+01  -2.05781   5.14454
     224.50   3.351216     0.1220E+01  -2.07770   5.19426
     225.50   3.353147     0.8757E+00  -2.22182   5.55455
     226.50   3.355068     0.7294E+00  -2.30121   5.75302
     227.50   3.356982     0.8104E+00  -2.25548   5.63871
     228.50   3.358886     0.1346E+01  -2.03528   5.08821
     229.50   3.360783     0.1018E+01  -2.15630   5.39075
     230.50   3.362671     0.1341E+01  -2.03690   5.09225
     231.50   3.364551     0.1092E+01  -2.12581   5.31454
     232.50   3.366423     0.9422E+00  -2.19003   5.47508
     233.50   3.368287     0.8336E+00  -2.24321   5.60802
     234.50   3.370143     0.5164E+00  -2.45119   6.12797
     235.50   3.371991     0.1090E+01  -2.12671   5.31678
     236.50   3.373831     0.6165E+00  -2.37426   5.93565
     237.50   3.375664     0.8198E+00  -2.25045   5.62612
     238.50   3.377488     0.4890E+00  -2.47485   6.18712
     239.50   3.379306     0.6277E+00  -2.36642   5.91605
     240.50   3.381115     0.6661E+00  -2.34065   5.85162
     241.50   3.382917     0.7428E+00  -2.29331   5.73328
     242.50   3.384712     0.1433E+01  -2.00799   5.01996
     243.50   3.386499     0.1500E+01  -1.98805   4.97013
     244.50   3.388279     0.1889E+01  -1.88792   4.71979
     245.50   3.390052     0.2084E+01  -1.84518   4.61295
     246.50   3.391817     0.1590E+01  -1.96274   4.90685
     247.50   3.393575     0.1373E+01  -2.02645   5.06613
     248.50   3.395326     0.5735E+00  -2.40564   6.01411
     249.50   3.397071     0.8957E+00  -2.21202   5.53005
     250.50   3.398808     0.1577E+01  -1.96639   4.91597
     251.30   3.400192     0.6182E+00  -2.37302   5.93256
     251.80   3.401056     0.4391E+00  -2.52166   6.30416
     252.50   3.402261     0.5105E+00  -2.45614   6.14036
     253.50   3.403978     0.1159E+01  -2.10005   5.25013
     254.50   3.405688     0.1224E+01  -2.07637   5.19091
     255.50   3.407391     0.3044E+01  -1.68073   4.20183
     256.50   3.409087     0.2015E+01  -1.86001   4.65002
     257.50   3.410777     0.2892E+01  -1.70294   4.25736
     258.50   3.412461     0.2472E+01  -1.77120   4.42800
     259.50   3.414137     0.2198E+01  -1.82224   4.55560
     260.50   3.415808     0.1865E+01  -1.89344   4.73359
     261.50   3.417472     0.1652E+01  -1.94619   4.86547
     262.50   3.419129     0.2406E+01  -1.78284   4.45709
     263.50   3.420781     0.5132E+01  -1.45393   3.63482
     264.50   3.422426     0.6946E+01  -1.32242   3.30604
     265.50   3.424065     0.1110E+02  -1.11870   2.79674
     266.50   3.425697     0.6182E+01  -1.37303   3.43258
     267.50   3.427324     0.7097E+01  -1.31310   3.28276
     268.50   3.428944     0.8847E+01  -1.21739   3.04347
     269.50   3.430559     0.5676E+01  -1.41011   3.52529
     270.50   3.432167     0.7638E+01  -1.28122   3.20306
     271.50   3.433770     0.5052E+01  -1.46074   3.65186
     272.50   3.435366     0.3261E+01  -1.65080   4.12701
     273.50   3.436957     0.4742E+01  -1.48818   3.72045
     274.50   3.438542     0.2634E+01  -1.74349   4.35873
     275.50   3.440122     0.3887E+01  -1.57457   3.93643
     276.50   3.441695     0.5447E+01  -1.42801   3.57002
     277.50   3.443263     0.5724E+01  -1.40649   3.51624
     278.50   3.444825     0.3124E+01  -1.66941   4.17353
     279.50   3.446382     0.1361E+01  -2.03038   5.07595
     280.50   3.447933     0.1687E+01  -1.93712   4.84280
     281.50   3.449478     0.4882E+01  -1.47557   3.68892
     282.50   3.451018     0.7392E+01  -1.29542   3.23855
     283.50   3.452553     0.6541E+01  -1.34852   3.37130
     284.50   3.454082     0.3789E+01  -1.58564   3.96411
     285.50   3.455606     0.1833E+01  -1.90106   4.75264
     286.50   3.457125     0.5962E+01  -1.38882   3.47206
     287.50   3.458638     0.1002E+02  -1.16326   2.90815
     288.50   3.460146     0.9208E+01  -1.20001   3.00002
     289.50   3.461648     0.1281E+02  -1.05665   2.64162
     291.00   3.463893     0.1923E+02  -0.88017   2.20042
     293.00   3.466868     0.1810E+02  -0.90647   2.26618
     295.00   3.469822     0.1791E+02  -0.91119   2.27798
     297.00   3.472756     0.1921E+02  -0.88056   2.20139
     299.00   3.475671     0.2081E+02  -0.84597   2.11492
     301.00   3.478566     0.2098E+02  -0.84244   2.10610
     303.00   3.481443     0.2339E+02  -0.79515   1.98787
     305.00   3.484300     0.2407E+02  -0.78271   1.95678
     307.00   3.487138     0.2361E+02  -0.79104   1.97761
     309.00   3.489959     0.2014E+02  -0.86010   2.15024
     311.00   3.492760     0.2503E+02  -0.76566   1.91415
     313.00   3.495544     0.2196E+02  -0.82256   2.05639
     315.00   3.498311     0.2210E+02  -0.81977   2.04942
     317.00   3.501059     0.2589E+02  -0.75104   1.87761
     319.00   3.503791     0.2177E+02  -0.82627   2.06568
     321.00   3.506505     0.2431E+02  -0.77848   1.94620
     323.00   3.509202     0.2067E+02  -0.84877   2.12191
     325.00   3.511883     0.3092E+02  -0.67396   1.68491
     327.00   3.514548     0.3605E+02  -0.60723   1.51807
     329.00   3.517196     0.3530E+02  -0.61635   1.54088
     331.00   3.519828     0.3191E+02  -0.66020   1.65049
     333.00   3.522444     0.3340E+02  -0.64037   1.60092
     335.00   3.525045     0.3233E+02  -0.65459   1.63648
     337.00   3.527630     0.2239E+02  -0.81414   2.03536
     339.00   3.530200     0.2684E+02  -0.73542   1.83855
     341.00   3.532754     0.2839E+02  -0.71099   1.77748
     343.00   3.535294     0.3105E+02  -0.67206   1.68014
     345.00   3.537819     0.3581E+02  -0.61014   1.52535
     347.00   3.540329     0.3767E+02  -0.58823   1.47058
     349.00   3.542825     0.4229E+02  -0.53796   1.34490
     351.00   3.545307     0.4461E+02  -0.51479   1.28698
     353.00   3.547775     0.3924E+02  -0.57039   1.42599
     355.00   3.550228     0.4367E+02  -0.52402   1.31005
     357.00   3.552668     0.3286E+02  -0.64751   1.61878
     359.00   3.555094     0.3522E+02  -0.61745   1.54363
     361.00   3.557507     0.4433E+02  -0.51752   1.29380
     363.00   3.559907     0.4517E+02  -0.50934   1.27334
     364.00   3.561101     0.4463E+02  -0.51459   1.28647
     365.00   3.562293     0.4693E+02  -0.49274   1.23184
     367.00   3.564666     0.5127E+02  -0.45428   1.13569
     369.00   3.567026     0.4478E+02  -0.51309   1.28274
     371.00   3.569374     0.4653E+02  -0.49646   1.24115
     373.00   3.571709     0.2777E+02  -0.72060   1.80151
     375.00   3.574031     0.3237E+02  -0.65409   1.63523
     377.00   3.576341     0.4505E+02  -0.51053   1.27632
     379.00   3.578639     0.4638E+02  -0.49789   1.24471
     381.00   3.580925     0.4210E+02  -0.53992   1.34980
     383.00   3.583199     0.2157E+02  -0.83024   2.07560
     385.00   3.585461     0.3087E+02  -0.67463   1.68657
     387.00   3.587711     0.3042E+02  -0.68108   1.70271
     389.00   3.589950     0.4181E+02  -0.54293   1.35733
     391.00   3.592177     0.5246E+02  -0.44431   1.11078
     393.00   3.594393     0.2374E+02  -0.78867   1.97167
     395.00   3.596597     0.4461E+02  -0.51477   1.28693
     397.00   3.598790     0.3033E+02  -0.68235   1.70588
     399.00   3.600973     0.7163E+02  -0.30908   0.77270
     401.00   3.603144     0.8006E+02  -0.26077   0.65193
     403.00   3.605305     0.7851E+02  -0.26927   0.67319
     405.00   3.607455     0.7493E+02  -0.28952   0.72381
     407.00   3.609594     0.6978E+02  -0.32047   0.80118
     409.00   3.611723     0.9006E+02  -0.20966   0.52416
     411.00   3.613842     0.8420E+02  -0.23888   0.59719
     413.00   3.615950     0.8072E+02  -0.25720   0.64299
     415.00   3.618048     0.7834E+02  -0.27020   0.67549
     417.00   3.620136     0.8003E+02  -0.26091   0.65228
     419.00   3.622214     0.7809E+02  -0.27157   0.67893
     421.00   3.624282     0.7919E+02  -0.26553   0.66382
     423.00   3.626340     0.7377E+02  -0.29630   0.74075
     425.00   3.628389     0.8056E+02  -0.25806   0.64514
     427.00   3.630428     0.7541E+02  -0.28675   0.71687
     429.00   3.632457     0.7027E+02  -0.31740   0.79351
     431.00   3.634477     0.6067E+02  -0.38121   0.95304
     433.00   3.636488     0.9321E+02  -0.19472   0.48680
     435.00   3.638489     0.9374E+02  -0.19225   0.48062
     437.00   3.640481     0.1017E+03  -0.15675   0.39187
     439.00   3.642465     0.8850E+02  -0.21726   0.54314
     441.00   3.644439     0.9462E+02  -0.18821   0.47052
     443.00   3.646404     0.1035E+03  -0.14927   0.37317
     445.00   3.648360     0.1048E+03  -0.14383   0.35957
     447.00   3.650307     0.1134E+03  -0.10958   0.27394
     449.00   3.652246     0.1172E+03  -0.09535   0.23837
     451.00   3.654176     0.1355E+03  -0.03238   0.08095
     453.00   3.656098     0.1167E+03  -0.09728   0.24320
     455.00   3.658011     0.1235E+03  -0.07263   0.18158
     457.00   3.659916     0.1348E+03  -0.03434   0.08584
     459.00   3.661813     0.1262E+03  -0.06313   0.15783
     461.00   3.663701     0.1307E+03  -0.04795   0.11988
     463.00   3.665581     0.1270E+03  -0.06044   0.15110
     465.00   3.667453     0.1289E+03  -0.05392   0.13479
     467.00   3.669317     0.1356E+03  -0.03197   0.07994
     469.00   3.671173     0.1322E+03  -0.04282   0.10704
     471.00   3.673021     0.1294E+03  -0.05219   0.13048
     473.00   3.674861     0.1338E+03  -0.03767   0.09418
     475.00   3.676694     0.1375E+03  -0.02578   0.06445
     477.00   3.678518     0.1340E+03  -0.03693   0.09232
     479.00   3.680336     0.1355E+03  -0.03216   0.08040
     481.00   3.682145     0.1363E+03  -0.02978   0.07446
     483.00   3.683947     0.1415E+03  -0.01335   0.03337
     485.00   3.685742     0.1351E+03  -0.03351   0.08377
     487.00   3.687529     0.1243E+03  -0.06973   0.17432
     489.00   3.689309     0.1375E+03  -0.02593   0.06482
     491.00   3.691082     0.1384E+03  -0.02301   0.05752
     493.00   3.692847     0.1357E+03  -0.03150   0.07876
     495.00   3.694605     0.1414E+03  -0.01366   0.03416
     497.00   3.696356     0.1355E+03  -0.03234   0.08086
     499.00   3.698101     0.1257E+03  -0.06494   0.16235
     501.00   3.699838     0.1178E+03  -0.09290   0.23224
     503.00   3.701568     0.1266E+03  -0.06169   0.15423
     505.00   3.703291     0.1265E+03  -0.06201   0.15504
     507.00   3.705008     0.1325E+03  -0.04199   0.10498
     509.00   3.706718     0.1248E+03  -0.06781   0.16952
     511.00   3.708421     0.1284E+03  -0.05573   0.13932
     513.00   3.710117     0.1242E+03  -0.06991   0.17478
     515.00   3.711807     0.1195E+03  -0.08677   0.21693
     517.00   3.713490     0.1056E+03  -0.14031   0.35078
     519.00   3.715167     0.1109E+03  -0.11914   0.29784
     521.00   3.716838     0.1226E+03  -0.07583   0.18957
     523.00   3.718502     0.1361E+03  -0.03026   0.07565
     525.00   3.720159     0.1432E+03  -0.00828   0.02070
     527.00   3.721811     0.1240E+03  -0.07066   0.17664
     529.00   3.723456     0.1466E+03   0.00200  -0.00501
     531.00   3.725095     0.1571E+03   0.03189  -0.07972
     533.00   3.726727     0.1362E+03  -0.02993   0.07483
     535.00   3.728354     0.1517E+03   0.01675  -0.04188
     537.00   3.729974     0.1501E+03   0.01228  -0.03071
     539.00   3.731589     0.1467E+03   0.00236  -0.00591
     541.00   3.733197     0.1445E+03  -0.00423   0.01057
     543.00   3.734800     0.1470E+03   0.00326  -0.00815
     545.00   3.736397     0.1501E+03   0.01209  -0.03023
     547.00   3.737987     0.1464E+03   0.00122  -0.00304
     549.00   3.739572     0.1488E+03   0.00852  -0.02129
     551.00   3.741152     0.1459E+03   0.00000   0.00000
     553.00   3.742725     0.1523E+03   0.01862  -0.04656
     555.00   3.744293     0.1554E+03   0.02719  -0.06797
     557.00   3.745855     0.1519E+03   0.01738  -0.04345
     559.00   3.747412     0.1475E+03   0.00464  -0.01159
     561.00   3.748963     0.1530E+03   0.02038  -0.05095
