age =   10.0    [Fe/H] =    0.00

wavele(nm) log wave(A)   Hlam       log(Hlam/Hlam(V))  Hlam(mag(V)) 
      89.50   2.951823     0.1101E-12 -15.21288  38.03219
      90.50   2.956649     0.1809E-12 -14.99720  37.49301
      91.50   2.961421     0.2835E-12 -14.80214  37.00536
      92.50   2.966142     0.2529E-10 -12.85181  32.12951
      93.50   2.970812     0.3534E-10 -12.70638  31.76596
      94.50   2.975432     0.5104E-10 -12.54677  31.36694
      95.50   2.980003     0.7716E-10 -12.36729  30.91824
      96.50   2.984527     0.1123E-09 -12.20423  30.51058
      97.50   2.989005     0.1503E-09 -12.07782  30.19456
      98.50   2.993436     0.2109E-09 -11.93072  29.82680
      99.50   2.997823     0.2864E-09 -11.79778  29.49444
     100.50   3.002166     0.4247E-09 -11.62664  29.06661
     101.50   3.006466     0.5763E-09 -11.49405  28.73511
     102.50   3.010724     0.6748E-09 -11.42552  28.56380
     103.50   3.014940     0.1082E-08 -11.22032  28.05081
     104.50   3.019116     0.1483E-08 -11.08344  27.70860
     105.50   3.023252     0.1909E-08 -10.97385  27.43462
     106.50   3.027350     0.2549E-08 -10.84826  27.12064
     107.50   3.031409     0.3439E-08 -10.71823  26.79557
     108.50   3.035430     0.4607E-08 -10.59127  26.47819
     109.50   3.039414     0.5799E-08 -10.49133  26.22832
     110.50   3.043362     0.3049E-07  -9.77056  24.42640
     111.50   3.047275     0.5446E-07  -9.51863  23.79658
     112.50   3.051152     0.8151E-07  -9.34347  23.35869
     113.50   3.054996     0.1207E-06  -9.17282  22.93205
     114.50   3.058805     0.1618E-06  -9.04583  22.61457
     115.50   3.062582     0.1889E-06  -8.97836  22.44591
     116.50   3.066326     0.2581E-06  -8.84296  22.10740
     117.50   3.070038     0.3324E-06  -8.73302  21.83255
     118.50   3.073718     0.3653E-06  -8.69206  21.73016
     119.50   3.077368     0.2991E-06  -8.77889  21.94722
     120.50   3.080987     0.3286E-06  -8.73799  21.84497
     121.50   3.084576     0.7433E-07  -9.38356  23.45890
     122.50   3.088136     0.4438E-06  -8.60750  21.51875
     123.50   3.091667     0.9031E-06  -8.29895  20.74737
     124.50   3.095169     0.1300E-05  -8.14076  20.35190
     125.50   3.098644     0.1593E-05  -8.05247  20.13119
     126.50   3.102091     0.1698E-05  -8.02488  20.06219
     127.50   3.105510     0.2115E-05  -7.92930  19.82326
     128.50   3.108903     0.2429E-05  -7.86925  19.67314
     129.50   3.112270     0.2957E-05  -7.78389  19.45972
     130.50   3.115611     0.3069E-05  -7.76772  19.41930
     131.50   3.118926     0.3870E-05  -7.66696  19.16741
     132.50   3.122216     0.4053E-05  -7.64697  19.11744
     133.50   3.125481     0.4524E-05  -7.59914  18.99784
     134.50   3.128722     0.5324E-05  -7.52843  18.82108
     135.50   3.131939     0.6166E-05  -7.46472  18.66181
     136.50   3.135133     0.6615E-05  -7.43419  18.58547
     137.50   3.138303     0.7140E-05  -7.40100  18.50251
     138.50   3.141450     0.7849E-05  -7.35991  18.39979
     139.50   3.144574     0.8845E-05  -7.30803  18.27006
     140.50   3.147676     0.1073E-04  -7.22403  18.06009
     141.50   3.150756     0.1217E-04  -7.16947  17.92366
     142.50   3.153815     0.1401E-04  -7.10838  17.77095
     143.50   3.156852     0.1661E-04  -7.03438  17.58596
     144.20   3.158965     0.2155E-04  -6.92123  17.30308
     144.70   3.160469     0.1931E-04  -6.96890  17.42225
     145.50   3.162863     0.2277E-04  -6.89736  17.24340
     146.50   3.165838     0.2911E-04  -6.79065  16.97661
     147.50   3.168792     0.3316E-04  -6.73413  16.83533
     148.50   3.171726     0.3572E-04  -6.70177  16.75443
     149.50   3.174641     0.4692E-04  -6.58338  16.45846
     150.50   3.177536     0.5724E-04  -6.49704  16.24260
     151.20   3.179552     0.4312E-04  -6.62002  16.55005
     151.70   3.180986     0.5534E-04  -6.51168  16.27919
     152.50   3.183270     0.1316E-03  -6.13551  15.33878
     153.50   3.186108     0.2153E-03  -5.92166  14.80415
     154.50   3.188928     0.1787E-03  -6.00257  15.00642
     155.50   3.191730     0.2929E-03  -5.78792  14.46979
     156.50   3.194514     0.2757E-03  -5.81427  14.53568
     157.50   3.197281     0.5081E-03  -5.54872  13.87179
     158.50   3.200029     0.6179E-03  -5.46379  13.65947
     159.50   3.202761     0.7231E-03  -5.39548  13.48871
     160.50   3.205475     0.7750E-03  -5.36539  13.41347
     161.50   3.208173     0.8522E-03  -5.32417  13.31043
     162.50   3.210853     0.9558E-03  -5.27433  13.18583
     163.50   3.213518     0.1120E-02  -5.20533  13.01333
     164.50   3.216166     0.1578E-02  -5.05671  12.64176
     165.50   3.218798     0.1011E-02  -5.25017  13.12542
     166.50   3.221414     0.1816E-02  -4.99558  12.48896
     167.20   3.223236     0.1277E-02  -5.14846  12.87115
     167.70   3.224533     0.4679E-02  -4.58454  11.46134
     168.50   3.226600     0.5286E-02  -4.53158  11.32895
     169.50   3.229170     0.6546E-02  -4.43870  11.09676
     170.50   3.231725     0.7087E-02  -4.40422  11.01055
     171.50   3.234264     0.6949E-02  -4.41275  11.03188
     172.50   3.236789     0.8795E-02  -4.31049  10.77623
     173.50   3.239300     0.1063E-01  -4.22829  10.57073
     174.50   3.241796     0.1449E-01  -4.09373  10.23434
     175.50   3.244277     0.1995E-01  -3.95485   9.88712
     176.50   3.246745     0.1804E-01  -3.99835   9.99589
     177.50   3.249198     0.2031E-01  -3.94703   9.86758
     178.50   3.251638     0.2657E-01  -3.83026   9.57565
     179.50   3.254065     0.3402E-01  -3.72297   9.30742
     180.50   3.256477     0.3440E-01  -3.71809   9.29523
     181.50   3.258877     0.3161E-01  -3.75483   9.38707
     182.50   3.261263     0.3991E-01  -3.65358   9.13394
     183.50   3.263636     0.4164E-01  -3.63525   9.08811
     184.50   3.265996     0.3131E-01  -3.75907   9.39769
     185.50   3.268344     0.4689E-01  -3.58366   8.95916
     186.50   3.270679     0.5650E-01  -3.50264   8.75659
     187.50   3.273001     0.6055E-01  -3.47262   8.68156
     188.50   3.275311     0.6497E-01  -3.44202   8.60504
     189.50   3.277609     0.8527E-01  -3.32390   8.30976
     190.50   3.279895     0.8251E-01  -3.33823   8.34556
     191.50   3.282169     0.9184E-01  -3.29166   8.22916
     192.50   3.284431     0.8898E-01  -3.30541   8.26352
     193.50   3.286681     0.6197E-01  -3.46255   8.65638
     194.50   3.288920     0.1193E+00  -3.17796   7.94489
     195.50   3.291147     0.1248E+00  -3.15863   7.89657
     196.70   3.293804     0.1632E+00  -3.04194   7.60486
     197.60   3.295787     0.1508E+00  -3.07621   7.69053
     198.40   3.297542     0.1869E+00  -2.98316   7.45789
     199.50   3.299943     0.1970E+00  -2.96015   7.40037
     200.50   3.302114     0.1904E+00  -2.97505   7.43762
     201.50   3.304275     0.2082E+00  -2.93626   7.34064
     202.50   3.306425     0.1674E+00  -3.03107   7.57768
     203.50   3.308564     0.2370E+00  -2.88004   7.20009
     204.50   3.310693     0.2757E+00  -2.81426   7.03566
     205.50   3.312812     0.2791E+00  -2.80889   7.02222
     206.50   3.314920     0.2772E+00  -2.81194   7.02985
     207.40   3.316809     0.3042E+00  -2.77160   6.92901
     207.80   3.317646     0.9571E+00  -2.27377   5.68442
     208.50   3.319106     0.1342E+01  -2.12712   5.31779
     209.50   3.321184     0.1222E+01  -2.16757   5.41893
     210.50   3.323252     0.1207E+01  -2.17305   5.43262
     211.50   3.325310     0.1437E+01  -2.09738   5.24344
     212.50   3.327359     0.1241E+01  -2.16104   5.40261
     213.50   3.329398     0.1221E+01  -2.16816   5.42040
     214.50   3.331427     0.1678E+01  -2.02981   5.07453
     215.50   3.333447     0.1602E+01  -2.05011   5.12527
     216.50   3.335458     0.1350E+01  -2.12432   5.31079
     217.50   3.337459     0.1344E+01  -2.12640   5.31600
     218.50   3.339452     0.1965E+01  -1.96135   4.90338
     219.50   3.341434     0.1834E+01  -1.99121   4.97804
     220.50   3.343409     0.1834E+01  -1.99119   4.97799
     221.50   3.345374     0.1300E+01  -2.14089   5.35224
     222.50   3.347330     0.1715E+01  -2.02051   5.05128
     223.50   3.349277     0.2498E+01  -1.85710   4.64274
     224.50   3.351216     0.2374E+01  -1.87924   4.69809
     225.50   3.353147     0.1678E+01  -2.02991   5.07477
     226.50   3.355068     0.1431E+01  -2.09898   5.24746
     227.50   3.356982     0.1600E+01  -2.05053   5.12632
     228.50   3.358886     0.2585E+01  -1.84229   4.60572
     229.50   3.360783     0.1968E+01  -1.96066   4.90164
     230.50   3.362671     0.2613E+01  -1.83761   4.59404
     231.50   3.364551     0.2083E+01  -1.93604   4.84010
     232.50   3.366423     0.1733E+01  -2.01587   5.03967
     233.50   3.368287     0.1465E+01  -2.08879   5.22198
     234.50   3.370143     0.8843E+00  -2.30809   5.77022
     235.50   3.371991     0.1993E+01  -1.95510   4.88776
     236.50   3.373831     0.1056E+01  -2.23111   5.57778
     237.50   3.375664     0.1443E+01  -2.09531   5.23829
     238.50   3.377488     0.8061E+00  -2.34833   5.87082
     239.50   3.379306     0.1056E+01  -2.23087   5.57718
     240.50   3.381115     0.1098E+01  -2.21404   5.53510
     241.50   3.382917     0.1300E+01  -2.14077   5.35192
     242.50   3.384712     0.2581E+01  -1.84287   4.60717
     243.50   3.386499     0.2676E+01  -1.82728   4.56819
     244.50   3.388279     0.3356E+01  -1.72890   4.32226
     245.50   3.390052     0.3692E+01  -1.68747   4.21867
     246.50   3.391817     0.2878E+01  -1.79568   4.48921
     247.50   3.393575     0.2479E+01  -1.86043   4.65109
     248.50   3.395326     0.1082E+01  -2.22064   5.55159
     249.50   3.397071     0.1649E+01  -2.03745   5.09363
     250.50   3.398808     0.2912E+01  -1.79053   4.47631
     251.30   3.400192     0.1052E+01  -2.23285   5.58213
     251.80   3.401056     0.7489E+00  -2.38031   5.95076
     252.50   3.402261     0.8772E+00  -2.31160   5.77899
     253.50   3.403978     0.1945E+01  -1.96573   4.91433
     254.50   3.405688     0.2080E+01  -1.93674   4.84185
     255.50   3.407391     0.4918E+01  -1.56296   3.90739
     256.50   3.409087     0.3288E+01  -1.73774   4.34435
     257.50   3.410777     0.4620E+01  -1.59010   3.97525
     258.50   3.412461     0.3931E+01  -1.66025   4.15062
     259.50   3.414137     0.3450E+01  -1.71695   4.29237
     260.50   3.415808     0.2885E+01  -1.79456   4.48640
     261.50   3.417472     0.2550E+01  -1.84808   4.62021
     262.50   3.419129     0.3745E+01  -1.68124   4.20310
     263.50   3.420781     0.7819E+01  -1.36158   3.40394
     264.50   3.422426     0.1074E+02  -1.22351   3.05878
     265.50   3.424065     0.1643E+02  -1.03920   2.59799
     266.50   3.425697     0.9395E+01  -1.28180   3.20450
     267.50   3.427324     0.1088E+02  -1.21813   3.04532
     268.50   3.428944     0.1325E+02  -1.13257   2.83143
     269.50   3.430559     0.8827E+01  -1.30888   3.27219
     270.50   3.432167     0.1156E+02  -1.19166   2.97916
     271.50   3.433770     0.7789E+01  -1.36323   3.40808
     272.50   3.435366     0.5364E+01  -1.52525   3.81314
     273.50   3.436957     0.7544E+01  -1.37709   3.44272
     274.50   3.438542     0.3981E+01  -1.65469   4.13674
     275.50   3.440122     0.5868E+01  -1.48618   3.71546
     276.50   3.441695     0.8182E+01  -1.34186   3.35466
     277.50   3.443263     0.8632E+01  -1.31861   3.29653
     278.50   3.444825     0.4671E+01  -1.58530   3.96325
     279.50   3.446382     0.1975E+01  -1.95920   4.89799
     280.50   3.447933     0.2458E+01  -1.86411   4.66027
     281.50   3.449478     0.7374E+01  -1.38701   3.46752
     282.50   3.451018     0.1144E+02  -1.19647   2.99117
     283.50   3.452553     0.1047E+02  -1.23488   3.08719
     284.50   3.454082     0.6429E+01  -1.44656   3.61639
     285.50   3.455606     0.3146E+01  -1.75688   4.39220
     286.50   3.457125     0.1000E+02  -1.25466   3.13666
     287.50   3.458638     0.1560E+02  -1.06148   2.65370
     288.50   3.460146     0.1394E+02  -1.11030   2.77575
     289.50   3.461648     0.1860E+02  -0.98528   2.46321
     291.00   3.463893     0.2700E+02  -0.82327   2.05816
     293.00   3.466868     0.2523E+02  -0.85285   2.13213
     295.00   3.469822     0.2497E+02  -0.85732   2.14330
     297.00   3.472756     0.2687E+02  -0.82537   2.06343
     299.00   3.475671     0.2878E+02  -0.79560   1.98900
     301.00   3.478566     0.2925E+02  -0.78856   1.97141
     303.00   3.481443     0.3203E+02  -0.74911   1.87277
     305.00   3.484300     0.3302E+02  -0.73594   1.83984
     307.00   3.487138     0.3236E+02  -0.74465   1.86162
     309.00   3.489959     0.2837E+02  -0.80184   2.00460
     311.00   3.492760     0.3417E+02  -0.72112   1.80280
     313.00   3.495544     0.3053E+02  -0.76992   1.92480
     315.00   3.498311     0.3041E+02  -0.77169   1.92923
     317.00   3.501059     0.3521E+02  -0.70798   1.76996
     319.00   3.503791     0.2986E+02  -0.77960   1.94899
     321.00   3.506505     0.3342E+02  -0.73072   1.82680
     323.00   3.509202     0.2837E+02  -0.80178   2.00444
     325.00   3.511883     0.4137E+02  -0.63797   1.59493
     327.00   3.514548     0.4797E+02  -0.57375   1.43438
     329.00   3.517196     0.4683E+02  -0.58414   1.46034
     331.00   3.519828     0.4298E+02  -0.62142   1.55356
     333.00   3.522444     0.4475E+02  -0.60392   1.50979
     335.00   3.525045     0.4351E+02  -0.61609   1.54024
     337.00   3.527630     0.3100E+02  -0.76331   1.90827
     339.00   3.530200     0.3676E+02  -0.68932   1.72329
     341.00   3.532754     0.3863E+02  -0.66783   1.66958
     343.00   3.535294     0.4173E+02  -0.63426   1.58564
     345.00   3.537819     0.4760E+02  -0.57705   1.44263
     347.00   3.540329     0.4979E+02  -0.55758   1.39396
     349.00   3.542825     0.5542E+02  -0.51107   1.27768
     351.00   3.545307     0.5826E+02  -0.48935   1.22338
     353.00   3.547775     0.5173E+02  -0.54098   1.35244
     355.00   3.550228     0.5769E+02  -0.49363   1.23407
     357.00   3.552668     0.4410E+02  -0.61023   1.52558
     359.00   3.555094     0.4674E+02  -0.58499   1.46248
     361.00   3.557507     0.5754E+02  -0.49476   1.23691
     363.00   3.559907     0.5861E+02  -0.48674   1.21684
     364.00   3.561101     0.5809E+02  -0.49060   1.22651
     365.00   3.562293     0.6144E+02  -0.46625   1.16562
     367.00   3.564666     0.6633E+02  -0.43297   1.08243
     369.00   3.567026     0.5857E+02  -0.48705   1.21763
     371.00   3.569374     0.6123E+02  -0.46776   1.16941
     373.00   3.571709     0.3860E+02  -0.66811   1.67028
     375.00   3.574031     0.4453E+02  -0.60606   1.51514
     377.00   3.576341     0.5993E+02  -0.47705   1.19263
     379.00   3.578639     0.6185E+02  -0.46335   1.15838
     381.00   3.580925     0.5733E+02  -0.49632   1.24080
     383.00   3.583199     0.3082E+02  -0.76593   1.91483
     385.00   3.585461     0.4378E+02  -0.61346   1.53365
     387.00   3.587711     0.4307E+02  -0.62048   1.55120
     389.00   3.589950     0.5622E+02  -0.50485   1.26212
     391.00   3.592177     0.6936E+02  -0.41360   1.03400
     393.00   3.594393     0.3205E+02  -0.74883   1.87207
     395.00   3.596597     0.5896E+02  -0.48414   1.21034
     397.00   3.598790     0.4018E+02  -0.65068   1.62670
     399.00   3.600973     0.9237E+02  -0.28918   0.72294
     401.00   3.603144     0.1027E+03  -0.24305   0.60762
     403.00   3.605305     0.1013E+03  -0.24927   0.62319
     405.00   3.607455     0.9681E+02  -0.26878   0.67195
     407.00   3.609594     0.9068E+02  -0.29719   0.74297
     409.00   3.611723     0.1147E+03  -0.19519   0.48797
     411.00   3.613842     0.1074E+03  -0.22379   0.55948
     413.00   3.615950     0.1040E+03  -0.23782   0.59455
     415.00   3.618048     0.1015E+03  -0.24813   0.62033
     417.00   3.620136     0.1033E+03  -0.24052   0.60129
     419.00   3.622214     0.1009E+03  -0.25067   0.62667
     421.00   3.624282     0.1023E+03  -0.24475   0.61187
     423.00   3.626340     0.9586E+02  -0.27308   0.68270
     425.00   3.628389     0.1038E+03  -0.23832   0.59580
     427.00   3.630428     0.9739E+02  -0.26620   0.66550
     429.00   3.632457     0.9070E+02  -0.29708   0.74269
     431.00   3.634477     0.7814E+02  -0.36186   0.90464
     433.00   3.636488     0.1182E+03  -0.18203   0.45508
     435.00   3.638489     0.1182E+03  -0.18196   0.45490
     437.00   3.640481     0.1288E+03  -0.14478   0.36196
     439.00   3.642465     0.1128E+03  -0.20249   0.50621
     441.00   3.644439     0.1203E+03  -0.17435   0.43587
     443.00   3.646404     0.1309E+03  -0.13780   0.34450
     445.00   3.648360     0.1323E+03  -0.13320   0.33299
     447.00   3.650307     0.1426E+03  -0.10070   0.25174
     449.00   3.652246     0.1470E+03  -0.08753   0.21882
     451.00   3.654176     0.1690E+03  -0.02672   0.06681
     453.00   3.656098     0.1463E+03  -0.08943   0.22357
     455.00   3.658011     0.1543E+03  -0.06626   0.16565
     457.00   3.659916     0.1682E+03  -0.02886   0.07214
     459.00   3.661813     0.1576E+03  -0.05722   0.14304
     461.00   3.663701     0.1631E+03  -0.04236   0.10590
     463.00   3.665581     0.1584E+03  -0.05484   0.13709
     465.00   3.667453     0.1609E+03  -0.04802   0.12006
     467.00   3.669317     0.1689E+03  -0.02705   0.06762
     469.00   3.671173     0.1649E+03  -0.03754   0.09384
     471.00   3.673021     0.1613E+03  -0.04719   0.11799
     473.00   3.674861     0.1669E+03  -0.03221   0.08051
     475.00   3.676694     0.1715E+03  -0.02047   0.05118
     477.00   3.678518     0.1676E+03  -0.03053   0.07632
     479.00   3.680336     0.1691E+03  -0.02653   0.06633
     481.00   3.682145     0.1697E+03  -0.02510   0.06275
     483.00   3.683947     0.1760E+03  -0.00912   0.02279
     485.00   3.685742     0.1676E+03  -0.03055   0.07637
     487.00   3.687529     0.1537E+03  -0.06791   0.16978
     489.00   3.689309     0.1707E+03  -0.02236   0.05590
     491.00   3.691082     0.1718E+03  -0.01968   0.04919
     493.00   3.692847     0.1686E+03  -0.02773   0.06932
     495.00   3.694605     0.1758E+03  -0.00966   0.02415
     497.00   3.696356     0.1688E+03  -0.02722   0.06805
     499.00   3.698101     0.1568E+03  -0.05942   0.14855
     501.00   3.699838     0.1474E+03  -0.08631   0.21577
     503.00   3.701568     0.1581E+03  -0.05586   0.13964
     505.00   3.703291     0.1581E+03  -0.05578   0.13946
     507.00   3.705008     0.1656E+03  -0.03574   0.08935
     509.00   3.706718     0.1561E+03  -0.06121   0.15301
     511.00   3.708421     0.1604E+03  -0.04937   0.12343
     513.00   3.710117     0.1553E+03  -0.06341   0.15853
     515.00   3.711807     0.1496E+03  -0.07972   0.19929
     517.00   3.713490     0.1330E+03  -0.13076   0.32690
     519.00   3.715167     0.1391E+03  -0.11133   0.27831
     521.00   3.716838     0.1529E+03  -0.07044   0.17609
     523.00   3.718502     0.1685E+03  -0.02807   0.07017
     525.00   3.720159     0.1768E+03  -0.00728   0.01821
     527.00   3.721811     0.1538E+03  -0.06770   0.16925
     529.00   3.723456     0.1808E+03   0.00239  -0.00598
     531.00   3.725095     0.1932E+03   0.03121  -0.07802
     533.00   3.726727     0.1682E+03  -0.02892   0.07230
     535.00   3.728354     0.1867E+03   0.01655  -0.04136
     537.00   3.729974     0.1850E+03   0.01236  -0.03089
     539.00   3.731589     0.1807E+03   0.00237  -0.00592
     541.00   3.733197     0.1780E+03  -0.00428   0.01070
     543.00   3.734800     0.1812E+03   0.00343  -0.00857
     545.00   3.736397     0.1851E+03   0.01269  -0.03173
     547.00   3.737987     0.1803E+03   0.00117  -0.00293
     549.00   3.739572     0.1831E+03   0.00807  -0.02018
     551.00   3.741152     0.1798E+03   0.00000   0.00000
     553.00   3.742725     0.1872E+03   0.01759  -0.04397
     555.00   3.744293     0.1908E+03   0.02590  -0.06476
     557.00   3.745855     0.1865E+03   0.01607  -0.04017
     559.00   3.747412     0.1814E+03   0.00382  -0.00955
     561.00   3.748963     0.1879E+03   0.01929  -0.04822
