age =   15.0    [Fe/H] =    0.25

wavele(nm) log wave(A)   Hlam       log(Hlam/Hlam(V))  Hlam(mag(V)) 
      90.50   2.956649     0.8082E-14 -16.09882  40.24704
      91.50   2.961421     0.1330E-12 -14.88237  37.20592
      92.50   2.966142     0.6824E-12 -14.17227  35.43069
      93.50   2.970812     0.9844E-12 -14.01315  35.03287
      94.50   2.975432     0.1508E-11 -13.82795  34.56987
      95.50   2.980003     0.2300E-11 -13.64452  34.11130
      96.50   2.984527     0.3652E-11 -13.44375  33.60938
      97.50   2.989005     0.5124E-11 -13.29674  33.24186
      98.50   2.993436     0.7468E-11 -13.13313  32.83282
      99.50   2.997823     0.1057E-10 -12.98211  32.45528
     100.50   3.002166     0.1593E-10 -12.80415  32.01038
     101.50   3.006466     0.2276E-10 -12.64915  31.62288
     102.50   3.010724     0.2834E-10 -12.55390  31.38476
     103.50   3.014940     0.4584E-10 -12.34504  30.86261
     104.50   3.019116     0.6515E-10 -12.19241  30.48103
     105.50   3.023252     0.8449E-10 -12.07952  30.19880
     106.50   3.027350     0.1201E-09 -11.92683  29.81708
     107.50   3.031409     0.1653E-09 -11.78815  29.47038
     108.50   3.035430     0.2260E-09 -11.65218  29.13044
     109.50   3.039414     0.2885E-09 -11.54618  28.86544
     110.50   3.043362     0.4199E-09 -11.38313  28.45783
     111.50   3.047275     0.5778E-09 -11.24456  28.11140
     112.50   3.051152     0.8041E-09 -11.10100  27.75249
     113.50   3.054996     0.1142E-08 -10.94860  27.37149
     114.50   3.058805     0.1529E-08 -10.82194  27.05486
     115.50   3.062582     0.1958E-08 -10.71448  26.78620
     116.50   3.066326     0.2605E-08 -10.59054  26.47634
     117.50   3.070038     0.3435E-08 -10.47039  26.17597
     118.50   3.073718     0.4245E-08 -10.37848  25.94621
     119.50   3.077368     0.4945E-08 -10.31219  25.78048
     120.50   3.080987     0.6070E-08 -10.22314  25.55785
     121.50   3.084576     0.4633E-08 -10.34045  25.85114
     122.50   3.088136     0.9345E-08 -10.03576  25.08940
     123.50   3.091667     0.1334E-07  -9.88121  24.70303
     124.50   3.095169     0.1679E-07  -9.78125  24.45314
     125.50   3.098644     0.2046E-07  -9.69533  24.23832
     126.50   3.102091     0.2472E-07  -9.61321  24.03303
     127.50   3.105510     0.3038E-07  -9.52373  23.80933
     128.50   3.108903     0.3541E-07  -9.45720  23.64299
     129.50   3.112270     0.4350E-07  -9.36785  23.41963
     130.50   3.115611     0.5102E-07  -9.29862  23.24655
     131.50   3.118926     0.6361E-07  -9.20278  23.00696
     132.50   3.122216     0.7246E-07  -9.14624  22.86559
     133.50   3.125481     0.8522E-07  -9.07580  22.68951
     134.50   3.128722     0.1043E-06  -8.98810  22.47025
     135.50   3.131939     0.1276E-06  -8.90053  22.25133
     136.50   3.135133     0.1469E-06  -8.83938  22.09846
     137.50   3.138303     0.1710E-06  -8.77324  21.93310
     138.50   3.141450     0.1991E-06  -8.70730  21.76824
     139.50   3.144574     0.2346E-06  -8.63601  21.59003
     140.50   3.147676     0.2881E-06  -8.54681  21.36702
     141.50   3.150756     0.3415E-06  -8.47294  21.18235
     142.50   3.153815     0.4062E-06  -8.39762  20.99405
     143.50   3.156852     0.4895E-06  -8.31653  20.79133
     144.20   3.158965     0.5869E-06  -8.23777  20.59441
     144.70   3.160469     0.5911E-06  -8.23463  20.58657
     145.50   3.162863     0.6880E-06  -8.16875  20.42188
     146.50   3.165838     0.8527E-06  -8.07552  20.18880
     147.50   3.168792     0.9967E-06  -8.00776  20.01940
     148.50   3.171726     0.1134E-05  -7.95159  19.87897
     149.50   3.174641     0.1409E-05  -7.85731  19.64329
     150.50   3.177536     0.1702E-05  -7.77547  19.43869
     151.20   3.179552     0.1607E-05  -7.80028  19.50070
     151.70   3.180986     0.1872E-05  -7.73405  19.33512
     152.50   3.183270     0.3492E-05  -7.46325  18.65813
     153.50   3.186108     0.5508E-05  -7.26531  18.16328
     154.50   3.188928     0.4880E-05  -7.31787  18.29468
     155.50   3.191730     0.7760E-05  -7.11648  17.79119
     156.50   3.194514     0.7747E-05  -7.11716  17.79290
     157.50   3.197281     0.1667E-04  -6.78446  16.96114
     158.50   3.200029     0.2010E-04  -6.70316  16.75790
     159.50   3.202761     0.2365E-04  -6.63243  16.58107
     160.50   3.205475     0.2509E-04  -6.60685  16.51712
     161.50   3.208173     0.2746E-04  -6.56770  16.41924
     162.50   3.210853     0.3123E-04  -6.51175  16.27938
     163.50   3.213518     0.3975E-04  -6.40704  16.01759
     164.50   3.216166     0.5673E-04  -6.25252  15.63131
     165.50   3.218798     0.4152E-04  -6.38807  15.97017
     166.50   3.221414     0.6938E-04  -6.16507  15.41268
     167.20   3.223236     0.4979E-04  -6.30920  15.77301
     167.70   3.224533     0.1907E-03  -5.72595  14.31488
     168.50   3.226600     0.2151E-03  -5.67360  14.18400
     169.50   3.229170     0.2773E-03  -5.56338  13.90846
     170.50   3.231725     0.2966E-03  -5.53422  13.83554
     171.50   3.234264     0.2871E-03  -5.54827  13.87067
     172.50   3.236789     0.3984E-03  -5.40604  13.51509
     173.50   3.239300     0.4794E-03  -5.32559  13.31399
     174.50   3.241796     0.6814E-03  -5.17295  12.93237
     175.50   3.244277     0.8898E-03  -5.05702  12.64256
     176.50   3.246745     0.8766E-03  -5.06351  12.65877
     177.50   3.249198     0.9128E-03  -5.04596  12.61491
     178.50   3.251638     0.1302E-02  -4.89179  12.22948
     179.50   3.254065     0.1456E-02  -4.84307  12.10768
     180.50   3.256477     0.1749E-02  -4.76360  11.90900
     181.50   3.258877     0.1596E-02  -4.80342  12.00856
     182.50   3.261263     0.2181E-02  -4.66759  11.66897
     183.50   3.263636     0.2214E-02  -4.66111  11.65277
     184.50   3.265996     0.1774E-02  -4.75736  11.89339
     185.50   3.268344     0.2390E-02  -4.62801  11.57002
     186.50   3.270679     0.2930E-02  -4.53952  11.34880
     187.50   3.273001     0.3169E-02  -4.50541  11.26353
     188.50   3.275311     0.3482E-02  -4.46454  11.16134
     189.50   3.277609     0.4691E-02  -4.33503  10.83758
     190.50   3.279895     0.4539E-02  -4.34938  10.87346
     191.50   3.282169     0.5307E-02  -4.28144  10.70360
     192.50   3.284431     0.5288E-02  -4.28305  10.70762
     193.50   3.286681     0.3524E-02  -4.45933  11.14833
     194.50   3.288920     0.6905E-02  -4.16715  10.41788
     195.50   3.291147     0.7668E-02  -4.12166  10.30414
     196.70   3.293804     0.9769E-02  -4.01645  10.04113
     197.60   3.295787     0.9934E-02  -4.00921  10.02301
     198.40   3.297542     0.1118E-01  -3.95777   9.89442
     199.50   3.299943     0.1126E-01  -3.95466   9.88664
     200.50   3.302114     0.1129E-01  -3.95356   9.88390
     201.50   3.304275     0.1271E-01  -3.90203   9.75507
     202.50   3.306425     0.1034E-01  -3.99188   9.97971
     203.50   3.308564     0.1429E-01  -3.85123   9.62808
     204.50   3.310693     0.1637E-01  -3.79229   9.48073
     205.50   3.312812     0.1773E-01  -3.75756   9.39390
     206.50   3.314920     0.1778E-01  -3.75638   9.39094
     207.40   3.316809     0.1867E-01  -3.73509   9.33774
     207.80   3.317646     0.3885E-01  -3.41696   8.54239
     208.50   3.319106     0.4946E-01  -3.31203   8.28008
     209.50   3.321184     0.4833E-01  -3.32211   8.30528
     210.50   3.323252     0.4989E-01  -3.30833   8.27083
     211.50   3.325310     0.5896E-01  -3.23576   8.08940
     212.50   3.327359     0.5431E-01  -3.27140   8.17851
     213.50   3.329398     0.6117E-01  -3.21978   8.04946
     214.50   3.331427     0.7052E-01  -3.15802   7.89506
     215.50   3.333447     0.6609E-01  -3.18620   7.96549
     216.50   3.335458     0.6368E-01  -3.20231   8.00577
     217.50   3.337459     0.6484E-01  -3.19447   7.98618
     218.50   3.339452     0.7883E-01  -3.10965   7.77412
     219.50   3.341434     0.8527E-01  -3.07552   7.68879
     220.50   3.343409     0.8736E-01  -3.06500   7.66250
     221.50   3.345374     0.7464E-01  -3.13336   7.83339
     222.50   3.347330     0.9057E-01  -3.04932   7.62329
     223.50   3.349277     0.1272E+00  -2.90194   7.25486
     224.50   3.351216     0.1286E+00  -2.89707   7.24268
     225.50   3.353147     0.1109E+00  -2.96145   7.40363
     226.50   3.355068     0.8842E-01  -3.05975   7.64938
     227.50   3.356982     0.1036E+00  -2.99099   7.47748
     228.50   3.358886     0.1497E+00  -2.83112   7.07780
     229.50   3.360783     0.1324E+00  -2.88452   7.21131
     230.50   3.362671     0.1342E+00  -2.87852   7.19630
     231.50   3.364551     0.1453E+00  -2.84417   7.11042
     232.50   3.366423     0.1447E+00  -2.84594   7.11486
     233.50   3.368287     0.1584E+00  -2.80663   7.01658
     234.50   3.370143     0.1085E+00  -2.97082   7.42704
     235.50   3.371991     0.1606E+00  -2.80057   7.00143
     236.50   3.373831     0.1264E+00  -2.90474   7.26184
     237.50   3.375664     0.1514E+00  -2.82617   7.06542
     238.50   3.377488     0.1203E+00  -2.92612   7.31531
     239.50   3.379306     0.1420E+00  -2.85405   7.13513
     240.50   3.381115     0.1649E+00  -2.78902   6.97256
     241.50   3.382917     0.1468E+00  -2.83964   7.09909
     242.50   3.384712     0.2272E+00  -2.64992   6.62479
     243.50   3.386499     0.2524E+00  -2.60429   6.51072
     244.50   3.388279     0.3119E+00  -2.51226   6.28065
     245.50   3.390052     0.3403E+00  -2.47444   6.18610
     246.50   3.391817     0.2609E+00  -2.58987   6.47469
     247.50   3.393575     0.2477E+00  -2.61232   6.53079
     248.50   3.395326     0.1041E+00  -2.98899   7.47247
     249.50   3.397071     0.1579E+00  -2.80793   7.01983
     250.50   3.398808     0.2702E+00  -2.57468   6.43671
     251.30   3.400192     0.1422E+00  -2.85354   7.13384
     251.80   3.401056     0.1014E+00  -3.00026   7.50066
     252.50   3.402261     0.1167E+00  -2.93913   7.34782
     253.50   3.403978     0.2717E+00  -2.57228   6.43069
     254.50   3.405688     0.2855E+00  -2.55069   6.37673
     255.50   3.407391     0.6656E+00  -2.18313   5.45782
     256.50   3.409087     0.4587E+00  -2.34477   5.86192
     257.50   3.410777     0.6732E+00  -2.17819   5.44547
     258.50   3.412461     0.6160E+00  -2.21676   5.54191
     259.50   3.414137     0.5982E+00  -2.22950   5.57375
     260.50   3.415808     0.5770E+00  -2.24511   5.61278
     261.50   3.417472     0.5158E+00  -2.29385   5.73462
     262.50   3.419129     0.7263E+00  -2.14519   5.36298
     263.50   3.420781     0.1468E+01  -1.83955   4.59889
     264.50   3.422426     0.1783E+01  -1.75507   4.38767
     265.50   3.424065     0.3269E+01  -1.49187   3.72968
     266.50   3.425697     0.1706E+01  -1.77438   4.43595
     267.50   3.427324     0.1848E+01  -1.73968   4.34920
     268.50   3.428944     0.2466E+01  -1.61438   4.03594
     269.50   3.430559     0.1445E+01  -1.84660   4.61650
     270.50   3.432167     0.2168E+01  -1.67017   4.17543
     271.50   3.433770     0.1432E+01  -1.85040   4.62601
     272.50   3.435366     0.8437E+00  -2.08011   5.20028
     273.50   3.436957     0.1237E+01  -1.91379   4.78448
     274.50   3.438542     0.8944E+00  -2.05477   5.13693
     275.50   3.440122     0.1237E+01  -1.91385   4.78462
     276.50   3.441695     0.1707E+01  -1.77397   4.43493
     277.50   3.443263     0.1850E+01  -1.73904   4.34759
     278.50   3.444825     0.1107E+01  -1.96224   4.90559
     279.50   3.446382     0.5480E+00  -2.26755   5.66889
     280.50   3.447933     0.6677E+00  -2.18177   5.45442
     281.50   3.449478     0.1643E+01  -1.79074   4.47686
     282.50   3.451018     0.2171E+01  -1.66970   4.17425
     283.50   3.452553     0.1752E+01  -1.76274   4.40685
     284.50   3.454082     0.9886E+00  -2.01132   5.02829
     285.50   3.455606     0.4694E+00  -2.33478   5.83696
     286.50   3.457125     0.1461E+01  -1.84177   4.60443
     287.50   3.458638     0.2725E+01  -1.57090   3.92725
     288.50   3.460146     0.2895E+01  -1.54468   3.86169
     289.50   3.461648     0.4352E+01  -1.36766   3.41914
     291.00   3.463893     0.7090E+01  -1.15570   2.88925
     293.00   3.466868     0.6302E+01  -1.20682   3.01705
     295.00   3.469822     0.5786E+01  -1.24397   3.10993
     297.00   3.472756     0.6018E+01  -1.22687   3.06718
     299.00   3.475671     0.6328E+01  -1.20504   3.01260
     301.00   3.478566     0.5976E+01  -1.22989   3.07472
     303.00   3.481443     0.7233E+01  -1.14700   2.86751
     305.00   3.484300     0.7452E+01  -1.13407   2.83519
     307.00   3.487138     0.8734E+01  -1.06513   2.66283
     309.00   3.489959     0.7700E+01  -1.11980   2.79951
     311.00   3.492760     0.1068E+02  -0.97779   2.44447
     313.00   3.495544     0.9159E+01  -1.04447   2.61117
     315.00   3.498311     0.9951E+01  -1.00844   2.52110
     317.00   3.501059     0.1177E+02  -0.93552   2.33881
     319.00   3.503791     0.9486E+01  -1.02925   2.57313
     321.00   3.506505     0.1046E+02  -0.98681   2.46702
     323.00   3.509202     0.8812E+01  -1.06126   2.65315
     325.00   3.511883     0.1413E+02  -0.85617   2.14042
     327.00   3.514548     0.1716E+02  -0.77186   1.92966
     329.00   3.517196     0.1720E+02  -0.77072   1.92681
     331.00   3.519828     0.1509E+02  -0.82773   2.06932
     333.00   3.522444     0.1603E+02  -0.80135   2.00337
     335.00   3.525045     0.1536E+02  -0.81995   2.04987
     337.00   3.527630     0.1016E+02  -0.99930   2.49824
     339.00   3.530200     0.1214E+02  -0.92204   2.30511
     341.00   3.532754     0.1275E+02  -0.90082   2.25206
     343.00   3.535294     0.1391E+02  -0.86304   2.15760
     345.00   3.537819     0.1547E+02  -0.81697   2.04242
     347.00   3.540329     0.1645E+02  -0.79008   1.97520
     349.00   3.542825     0.1948E+02  -0.71673   1.79182
     351.00   3.545307     0.2121E+02  -0.67985   1.69962
     353.00   3.547775     0.1789E+02  -0.75373   1.88432
     355.00   3.550228     0.2049E+02  -0.69475   1.73687
     357.00   3.552668     0.1287E+02  -0.89677   2.24191
     359.00   3.555094     0.1421E+02  -0.85370   2.13426
     361.00   3.557507     0.1979E+02  -0.70978   1.77445
     363.00   3.559907     0.2152E+02  -0.67352   1.68381
     364.00   3.561101     0.2191E+02  -0.66573   1.66431
     365.00   3.562293     0.2448E+02  -0.61756   1.54389
     367.00   3.564666     0.2773E+02  -0.56332   1.40829
     369.00   3.567026     0.2307E+02  -0.64323   1.60808
     371.00   3.569374     0.2342E+02  -0.63677   1.59192
     373.00   3.571709     0.1220E+02  -0.92012   2.30030
     375.00   3.574031     0.1453E+02  -0.84403   2.11009
     377.00   3.576341     0.2243E+02  -0.65541   1.63852
     379.00   3.578639     0.2311E+02  -0.64258   1.60644
     381.00   3.580925     0.1988E+02  -0.70796   1.76991
     383.00   3.583199     0.9498E+01  -1.02870   2.57175
     385.00   3.585461     0.1354E+02  -0.87455   2.18637
     387.00   3.587711     0.1368E+02  -0.87036   2.17589
     389.00   3.589950     0.2092E+02  -0.68579   1.71447
     391.00   3.592177     0.2751E+02  -0.56691   1.41727
     393.00   3.594393     0.1189E+02  -0.93097   2.32742
     395.00   3.596597     0.2302E+02  -0.64416   1.61039
     397.00   3.598790     0.1564E+02  -0.81198   2.02994
     399.00   3.600973     0.4038E+02  -0.40010   1.00025
     401.00   3.603144     0.4635E+02  -0.34029   0.85074
     403.00   3.605305     0.4497E+02  -0.35342   0.88355
     405.00   3.607455     0.4262E+02  -0.37674   0.94186
     407.00   3.609594     0.3873E+02  -0.41826   1.04565
     409.00   3.611723     0.5380E+02  -0.27557   0.68893
     411.00   3.613842     0.4978E+02  -0.30930   0.77325
     413.00   3.615950     0.4618E+02  -0.34184   0.85461
     415.00   3.618048     0.4435E+02  -0.35942   0.89854
     417.00   3.620136     0.4577E+02  -0.34574   0.86435
     419.00   3.622214     0.4544E+02  -0.34889   0.87223
     421.00   3.624282     0.4599E+02  -0.34361   0.85903
     423.00   3.626340     0.4073E+02  -0.39639   0.99097
     425.00   3.628389     0.4820E+02  -0.32324   0.80809
     427.00   3.630428     0.4507E+02  -0.35247   0.88118
     429.00   3.632457     0.4242E+02  -0.37873   0.94682
     431.00   3.634477     0.3775E+02  -0.42943   1.07357
     433.00   3.636488     0.5920E+02  -0.23397   0.58494
     435.00   3.638489     0.6132E+02  -0.21871   0.54678
     437.00   3.640481     0.6661E+02  -0.18278   0.45694
     439.00   3.642465     0.5612E+02  -0.25721   0.64302
     441.00   3.644439     0.5952E+02  -0.23166   0.57916
     443.00   3.646404     0.6527E+02  -0.19160   0.47900
     445.00   3.648360     0.6706E+02  -0.17987   0.44969
     447.00   3.650307     0.7383E+02  -0.13810   0.34526
     449.00   3.652246     0.7703E+02  -0.11965   0.29911
     451.00   3.654176     0.9193E+02  -0.04287   0.10717
     453.00   3.656098     0.7634E+02  -0.12359   0.30897
     455.00   3.658011     0.8194E+02  -0.09280   0.23200
     457.00   3.659916     0.9113E+02  -0.04664   0.11660
     459.00   3.661813     0.8486E+02  -0.07764   0.19409
     461.00   3.663701     0.8770E+02  -0.06330   0.15824
     463.00   3.665581     0.8447E+02  -0.07962   0.19904
     465.00   3.667453     0.8589E+02  -0.07237   0.18093
     467.00   3.669317     0.9181E+02  -0.04344   0.10861
     469.00   3.671173     0.8968E+02  -0.05361   0.13402
     471.00   3.673021     0.8670E+02  -0.06831   0.17077
     473.00   3.674861     0.8994E+02  -0.05235   0.13088
     475.00   3.676694     0.9268E+02  -0.03935   0.09837
     477.00   3.678518     0.8936E+02  -0.05517   0.13793
     479.00   3.680336     0.9115E+02  -0.04659   0.11646
     481.00   3.682145     0.9213E+02  -0.04190   0.10476
     483.00   3.683947     0.9686E+02  -0.02016   0.05040
     485.00   3.685742     0.9224E+02  -0.04141   0.10353
     487.00   3.687529     0.8476E+02  -0.07813   0.19532
     489.00   3.689309     0.9406E+02  -0.03290   0.08225
     491.00   3.691082     0.9475E+02  -0.02974   0.07434
     493.00   3.692847     0.9234E+02  -0.04093   0.10234
     495.00   3.694605     0.9612E+02  -0.02351   0.05878
     497.00   3.696356     0.9067E+02  -0.04886   0.12215
     499.00   3.698101     0.8335E+02  -0.08543   0.21358
     501.00   3.699838     0.7677E+02  -0.12111   0.30278
     503.00   3.701568     0.8379E+02  -0.08311   0.20778
     505.00   3.703291     0.8345E+02  -0.08488   0.21219
     507.00   3.705008     0.8759E+02  -0.06388   0.15971
     509.00   3.706718     0.8156E+02  -0.09482   0.23704
     511.00   3.708421     0.8463E+02  -0.07878   0.19695
     513.00   3.710117     0.8107E+02  -0.09748   0.24371
     515.00   3.711807     0.7769E+02  -0.11598   0.28995
     517.00   3.713490     0.6617E+02  -0.18567   0.46418
     519.00   3.715167     0.7066E+02  -0.15712   0.39281
     521.00   3.716838     0.8050E+02  -0.10052   0.25130
     523.00   3.718502     0.9317E+02  -0.03703   0.09258
     525.00   3.720159     0.9965E+02  -0.00785   0.01962
     527.00   3.721811     0.8394E+02  -0.08234   0.20584
     529.00   3.723456     0.1029E+03   0.00619  -0.01547
     531.00   3.725095     0.1122E+03   0.04367  -0.10917
     533.00   3.726727     0.9394E+02  -0.03345   0.08363
     535.00   3.728354     0.1071E+03   0.02337  -0.05843
     537.00   3.729974     0.1057E+03   0.01782  -0.04455
     539.00   3.731589     0.1027E+03   0.00534  -0.01335
     541.00   3.733197     0.1016E+03   0.00064  -0.00160
     543.00   3.734800     0.1034E+03   0.00831  -0.02078
     545.00   3.736397     0.1047E+03   0.01355  -0.03387
     547.00   3.737987     0.1022E+03   0.00329  -0.00823
     549.00   3.739572     0.1034E+03   0.00813  -0.02032
     551.00   3.741152     0.1015E+03   0.00000   0.00000
     553.00   3.742725     0.1078E+03   0.02629  -0.06572
     555.00   3.744293     0.1106E+03   0.03725  -0.09312
     557.00   3.745855     0.1083E+03   0.02827  -0.07067
     559.00   3.747412     0.1042E+03   0.01148  -0.02871
     561.00   3.748963     0.1083E+03   0.02824  -0.07060
     563.00   3.750508     0.1078E+03   0.02622  -0.06554
