age =   13.0    [Fe/H] =    0.25

wavele(nm) log wave(A)   Hlam       log(Hlam/Hlam(V))  Hlam(mag(V)) 
      90.50   2.956649     0.5462E-14 -16.32602  40.81504
      91.50   2.961421     0.1100E-12 -15.02192  37.55481
      92.50   2.966142     0.1249E-11 -13.96692  34.91731
      93.50   2.970812     0.1787E-11 -13.81129  34.52822
      94.50   2.975432     0.2725E-11 -13.62802  34.07005
      95.50   2.980003     0.4155E-11 -13.44486  33.61215
      96.50   2.984527     0.6444E-11 -13.25420  33.13550
      97.50   2.989005     0.8956E-11 -13.11129  32.77822
      98.50   2.993436     0.1295E-10 -12.95107  32.37768
      99.50   2.997823     0.1817E-10 -12.80399  32.00997
     100.50   3.002166     0.2750E-10 -12.62412  31.56031
     101.50   3.006466     0.3893E-10 -12.47312  31.18280
     102.50   3.010724     0.4766E-10 -12.38526  30.96314
     103.50   3.014940     0.7751E-10 -12.17402  30.43504
     104.50   3.019116     0.1098E-09 -12.02282  30.05705
     105.50   3.023252     0.1417E-09 -11.91206  29.78016
     106.50   3.027350     0.1997E-09 -11.76307  29.40767
     107.50   3.031409     0.2741E-09 -11.62547  29.06367
     108.50   3.035430     0.3733E-09 -11.49127  28.72818
     109.50   3.039414     0.4730E-09 -11.38853  28.47132
     110.50   3.043362     0.7366E-09 -11.19615  27.99036
     111.50   3.047275     0.1025E-08 -11.05272  27.63181
     112.50   3.051152     0.1429E-08 -10.90847  27.27118
     113.50   3.054996     0.2043E-08 -10.75313  26.88282
     114.50   3.058805     0.2734E-08 -10.62652  26.56631
     115.50   3.062582     0.3457E-08 -10.52469  26.31173
     116.50   3.066326     0.4623E-08 -10.39846  25.99614
     117.50   3.070038     0.6070E-08 -10.28018  25.70045
     118.50   3.073718     0.7396E-08 -10.19437  25.48592
     119.50   3.077368     0.8332E-08 -10.14265  25.35662
     120.50   3.080987     0.1019E-07 -10.05505  25.13762
     121.50   3.084576     0.6873E-08 -10.22623  25.56557
     122.50   3.088136     0.1543E-07  -9.87502  24.68756
     123.50   3.091667     0.2246E-07  -9.71199  24.27998
     124.50   3.095169     0.2823E-07  -9.61273  24.03182
     125.50   3.098644     0.3413E-07  -9.53029  23.82572
     126.50   3.102091     0.4063E-07  -9.45454  23.63634
     127.50   3.105510     0.4968E-07  -9.36722  23.41804
     128.50   3.108903     0.5722E-07  -9.30583  23.26457
     129.50   3.112270     0.7014E-07  -9.21742  23.04356
     130.50   3.115611     0.8090E-07  -9.15543  22.88859
     131.50   3.118926     0.1009E-06  -9.05963  22.64907
     132.50   3.122216     0.1129E-06  -9.01083  22.52709
     133.50   3.125481     0.1315E-06  -8.94435  22.36088
     134.50   3.128722     0.1604E-06  -8.85806  22.14516
     135.50   3.131939     0.1955E-06  -8.77216  21.93040
     136.50   3.135133     0.2224E-06  -8.71629  21.79072
     137.50   3.138303     0.2563E-06  -8.65462  21.63654
     138.50   3.141450     0.2957E-06  -8.59250  21.48126
     139.50   3.144574     0.3463E-06  -8.52388  21.30971
     140.50   3.147676     0.4259E-06  -8.43407  21.08517
     141.50   3.150756     0.5027E-06  -8.36212  20.90529
     142.50   3.153815     0.5965E-06  -8.28781  20.71952
     143.50   3.156852     0.7192E-06  -8.20654  20.51635
     144.20   3.158965     0.8723E-06  -8.12271  20.30678
     144.70   3.160469     0.8636E-06  -8.12706  20.31766
     145.50   3.162863     0.1007E-05  -8.06026  20.15066
     146.50   3.165838     0.1259E-05  -7.96349  19.90872
     147.50   3.168792     0.1467E-05  -7.89687  19.74219
     148.50   3.171726     0.1656E-05  -7.84436  19.61089
     149.50   3.174641     0.2076E-05  -7.74611  19.36528
     150.50   3.177536     0.2516E-05  -7.66271  19.15677
     151.20   3.179552     0.2298E-05  -7.70205  19.25513
     151.70   3.180986     0.2715E-05  -7.62970  19.07425
     152.50   3.183270     0.5420E-05  -7.32941  18.32353
     153.50   3.186108     0.8786E-05  -7.11962  17.79904
     154.50   3.188928     0.7620E-05  -7.18143  17.95358
     155.50   3.191730     0.1242E-04  -6.96918  17.42294
     156.50   3.194514     0.1223E-04  -6.97613  17.44033
     157.50   3.197281     0.2634E-04  -6.64283  16.60708
     158.50   3.200029     0.3195E-04  -6.55886  16.39714
     159.50   3.202761     0.3775E-04  -6.48652  16.21630
     160.50   3.205475     0.4009E-04  -6.46037  16.15092
     161.50   3.208173     0.4383E-04  -6.42160  16.05400
     162.50   3.210853     0.4989E-04  -6.36535  15.91336
     163.50   3.213518     0.6283E-04  -6.26520  15.66301
     164.50   3.216166     0.9035E-04  -6.10745  15.26862
     165.50   3.218798     0.6453E-04  -6.25362  15.63406
     166.50   3.221414     0.1099E-03  -6.02253  15.05632
     167.20   3.223236     0.7778E-04  -6.17251  15.43129
     167.70   3.224533     0.3131E-03  -5.56768  13.91919
     168.50   3.226600     0.3518E-03  -5.51709  13.79273
     169.50   3.229170     0.4532E-03  -5.40708  13.51771
     170.50   3.231725     0.4846E-03  -5.37804  13.44510
     171.50   3.234264     0.4651E-03  -5.39581  13.48953
     172.50   3.236789     0.6390E-03  -5.25786  13.14466
     173.50   3.239300     0.7711E-03  -5.17630  12.94076
     174.50   3.241796     0.1095E-02  -5.02402  12.56004
     175.50   3.244277     0.1452E-02  -4.90136  12.25341
     176.50   3.246745     0.1415E-02  -4.91266  12.28166
     177.50   3.249198     0.1486E-02  -4.89139  12.22846
     178.50   3.251638     0.2079E-02  -4.74555  11.86389
     179.50   3.254065     0.2371E-02  -4.68855  11.72136
     180.50   3.256477     0.2784E-02  -4.61866  11.54665
     181.50   3.258877     0.2571E-02  -4.65323  11.63307
     182.50   3.261263     0.3471E-02  -4.52295  11.30738
     183.50   3.263636     0.3540E-02  -4.51438  11.28596
     184.50   3.265996     0.2794E-02  -4.61722  11.54304
     185.50   3.268344     0.3842E-02  -4.47878  11.19694
     186.50   3.270679     0.4649E-02  -4.39604  10.99010
     187.50   3.273001     0.5051E-02  -4.36002  10.90006
     188.50   3.275311     0.5519E-02  -4.32153  10.80381
     189.50   3.277609     0.7417E-02  -4.19319  10.48297
     190.50   3.279895     0.7199E-02  -4.20612  10.51529
     191.50   3.282169     0.8301E-02  -4.14425  10.36063
     192.50   3.284431     0.8362E-02  -4.14110  10.35275
     193.50   3.286681     0.5640E-02  -4.31208  10.78019
     194.50   3.288920     0.1091E-01  -4.02542  10.06355
     195.50   3.291147     0.1195E-01  -3.98611   9.96527
     196.70   3.293804     0.1534E-01  -3.87765   9.69412
     197.60   3.295787     0.1546E-01  -3.87413   9.68532
     198.40   3.297542     0.1747E-01  -3.82107   9.55268
     199.50   3.299943     0.1768E-01  -3.81594   9.53986
     200.50   3.302114     0.1765E-01  -3.81675   9.54188
     201.50   3.304275     0.1980E-01  -3.76666   9.41666
     202.50   3.306425     0.1617E-01  -3.85477   9.63692
     203.50   3.308564     0.2228E-01  -3.71544   9.28861
     204.50   3.310693     0.2559E-01  -3.65529   9.13822
     205.50   3.312812     0.2756E-01  -3.62306   9.05766
     206.50   3.314920     0.2769E-01  -3.62113   9.05283
     207.40   3.316809     0.2930E-01  -3.59656   8.99139
     207.80   3.317646     0.6243E-01  -3.26797   8.16994
     208.50   3.319106     0.7995E-01  -3.16058   7.90146
     209.50   3.321184     0.7732E-01  -3.17508   7.93770
     210.50   3.323252     0.8011E-01  -3.15968   7.89921
     211.50   3.325310     0.9483E-01  -3.08644   7.71609
     212.50   3.327359     0.8685E-01  -3.12462   7.81156
     213.50   3.329398     0.9605E-01  -3.08088   7.70221
     214.50   3.331427     0.1141E+00  -3.00603   7.51508
     215.50   3.333447     0.1065E+00  -3.03616   7.59039
     216.50   3.335458     0.1020E+00  -3.05458   7.63644
     217.50   3.337459     0.1028E+00  -3.05149   7.62872
     218.50   3.339452     0.1292E+00  -2.95207   7.38018
     219.50   3.341434     0.1357E+00  -2.93097   7.32742
     220.50   3.343409     0.1395E+00  -2.91876   7.29690
     221.50   3.345374     0.1163E+00  -2.99774   7.49434
     222.50   3.347330     0.1436E+00  -2.90622   7.26554
     223.50   3.349277     0.2012E+00  -2.75971   6.89928
     224.50   3.351216     0.2014E+00  -2.75940   6.89851
     225.50   3.353147     0.1698E+00  -2.83345   7.08363
     226.50   3.355068     0.1378E+00  -2.92404   7.31010
     227.50   3.356982     0.1592E+00  -2.86153   7.15383
     228.50   3.358886     0.2343E+00  -2.69361   6.73403
     229.50   3.360783     0.2008E+00  -2.76054   6.90136
     230.50   3.362671     0.2151E+00  -2.73068   6.82669
     231.50   3.364551     0.2191E+00  -2.72283   6.80708
     232.50   3.366423     0.2161E+00  -2.72870   6.82175
     233.50   3.368287     0.2292E+00  -2.70311   6.75777
     234.50   3.370143     0.1563E+00  -2.86931   7.17328
     235.50   3.371991     0.2439E+00  -2.67616   6.69039
     236.50   3.373831     0.1831E+00  -2.80078   7.00196
     237.50   3.375664     0.2228E+00  -2.71547   6.78867
     238.50   3.377488     0.1681E+00  -2.83789   7.09472
     239.50   3.379306     0.2017E+00  -2.75868   6.89671
     240.50   3.381115     0.2295E+00  -2.70256   6.75641
     241.50   3.382917     0.2111E+00  -2.73885   6.84714
     242.50   3.384712     0.3346E+00  -2.53881   6.34702
     243.50   3.386499     0.3672E+00  -2.49850   6.24626
     244.50   3.388279     0.4530E+00  -2.40730   6.01826
     245.50   3.390052     0.4942E+00  -2.36950   5.92374
     246.50   3.391817     0.3823E+00  -2.48103   6.20259
     247.50   3.393575     0.3546E+00  -2.51366   6.28414
     248.50   3.395326     0.1502E+00  -2.88672   7.21679
     249.50   3.397071     0.2297E+00  -2.70226   6.75564
     250.50   3.398808     0.3912E+00  -2.47096   6.17741
     251.30   3.400192     0.1994E+00  -2.76361   6.90903
     251.80   3.401056     0.1407E+00  -2.91504   7.28759
     252.50   3.402261     0.1627E+00  -2.85200   7.13000
     253.50   3.403978     0.3745E+00  -2.48999   6.22497
     254.50   3.405688     0.3943E+00  -2.46760   6.16899
     255.50   3.407391     0.9409E+00  -2.08984   5.22459
     256.50   3.409087     0.6473E+00  -2.25225   5.63063
     257.50   3.410777     0.9427E+00  -2.08901   5.22252
     258.50   3.412461     0.8580E+00  -2.12989   5.32472
     259.50   3.414137     0.8196E+00  -2.14981   5.37451
     260.50   3.415808     0.7711E+00  -2.17626   5.44066
     261.50   3.417472     0.6886E+00  -2.22542   5.56356
     262.50   3.419129     0.9722E+00  -2.07561   5.18903
     263.50   3.420781     0.1979E+01  -1.76687   4.41718
     264.50   3.422426     0.2465E+01  -1.67152   4.17879
     265.50   3.424065     0.4423E+01  -1.41771   3.54427
     266.50   3.425697     0.2305E+01  -1.70064   4.25160
     267.50   3.427324     0.2543E+01  -1.65806   4.14514
     268.50   3.428944     0.3347E+01  -1.53869   3.84673
     269.50   3.430559     0.2012E+01  -1.75974   4.39936
     270.50   3.432167     0.2951E+01  -1.59346   3.98364
     271.50   3.433770     0.1947E+01  -1.77406   4.43515
     272.50   3.435366     0.1154E+01  -2.00104   5.00260
     273.50   3.436957     0.1698E+01  -1.83343   4.58356
     274.50   3.438542     0.1166E+01  -1.99686   4.99216
     275.50   3.440122     0.1634E+01  -1.85016   4.62541
     276.50   3.441695     0.2254E+01  -1.71046   4.27616
     277.50   3.443263     0.2421E+01  -1.67936   4.19841
     278.50   3.444825     0.1438E+01  -1.90551   4.76377
     279.50   3.446382     0.6874E+00  -2.22618   5.56545
     280.50   3.447933     0.8429E+00  -2.13763   5.34409
     281.50   3.449478     0.2154E+01  -1.73005   4.32513
     282.50   3.451018     0.2925E+01  -1.59724   3.99311
     283.50   3.452553     0.2418E+01  -1.67998   4.19994
     284.50   3.454082     0.1357E+01  -1.93067   4.82668
     285.50   3.455606     0.6455E+00  -2.25353   5.63381
     286.50   3.457125     0.2035E+01  -1.75478   4.38694
     287.50   3.458638     0.3815E+01  -1.48187   3.70466
     288.50   3.460146     0.3868E+01  -1.47585   3.68963
     289.50   3.461648     0.5715E+01  -1.30635   3.26586
     291.00   3.463893     0.9061E+01  -1.10621   2.76553
     293.00   3.466868     0.8059E+01  -1.15710   2.89276
     295.00   3.469822     0.7428E+01  -1.19253   2.98133
     297.00   3.472756     0.7766E+01  -1.17318   2.93296
     299.00   3.475671     0.8147E+01  -1.15241   2.88103
     301.00   3.478566     0.7728E+01  -1.17533   2.93831
     303.00   3.481443     0.9226E+01  -1.09836   2.74590
     305.00   3.484300     0.9487E+01  -1.08627   2.71567
     307.00   3.487138     0.1096E+02  -1.02352   2.55880
     309.00   3.489959     0.9746E+01  -1.07458   2.68645
     311.00   3.492760     0.1319E+02  -0.94318   2.35796
     313.00   3.495544     0.1143E+02  -1.00550   2.51375
     315.00   3.498311     0.1220E+02  -0.97691   2.44227
     317.00   3.501059     0.1433E+02  -0.90727   2.26817
     319.00   3.503791     0.1164E+02  -0.99735   2.49338
     321.00   3.506505     0.1287E+02  -0.95376   2.38441
     323.00   3.509202     0.1080E+02  -1.02994   2.57485
     325.00   3.511883     0.1710E+02  -0.83049   2.07622
     327.00   3.514548     0.2068E+02  -0.74789   1.86973
     329.00   3.517196     0.2061E+02  -0.74934   1.87335
     331.00   3.519828     0.1824E+02  -0.80243   2.00608
     333.00   3.522444     0.1934E+02  -0.77695   1.94238
     335.00   3.525045     0.1858E+02  -0.79433   1.98583
     337.00   3.527630     0.1248E+02  -0.96720   2.41800
     339.00   3.530200     0.1484E+02  -0.89197   2.22994
     341.00   3.532754     0.1553E+02  -0.87229   2.18071
     343.00   3.535294     0.1680E+02  -0.83807   2.09518
     345.00   3.537819     0.1871E+02  -0.79128   1.97820
     347.00   3.540329     0.1985E+02  -0.76558   1.91396
     349.00   3.542825     0.2332E+02  -0.69560   1.73900
     351.00   3.545307     0.2527E+02  -0.66084   1.65209
     353.00   3.547775     0.2145E+02  -0.73206   1.83015
     355.00   3.550228     0.2453E+02  -0.67375   1.68439
     357.00   3.552668     0.1560E+02  -0.87028   2.17569
     359.00   3.555094     0.1712E+02  -0.82981   2.07453
     361.00   3.557507     0.2359E+02  -0.69071   1.72677
     363.00   3.559907     0.2550E+02  -0.65691   1.64228
     364.00   3.561101     0.2594E+02  -0.64935   1.62337
     365.00   3.562293     0.2903E+02  -0.60049   1.50122
     367.00   3.564666     0.3265E+02  -0.54948   1.37369
     369.00   3.567026     0.2741E+02  -0.62542   1.56355
     371.00   3.569374     0.2803E+02  -0.61576   1.53939
     373.00   3.571709     0.1505E+02  -0.88573   2.21433
     375.00   3.574031     0.1783E+02  -0.81225   2.03063
     377.00   3.576341     0.2683E+02  -0.63483   1.58708
     379.00   3.578639     0.2757E+02  -0.62297   1.55742
     381.00   3.580925     0.2390E+02  -0.68496   1.71240
     383.00   3.583199     0.1158E+02  -0.99954   2.49885
     385.00   3.585461     0.1638E+02  -0.84907   2.12268
     387.00   3.587711     0.1654E+02  -0.84491   2.11227
     389.00   3.589950     0.2509E+02  -0.66381   1.65952
     391.00   3.592177     0.3264E+02  -0.54969   1.37423
     393.00   3.594393     0.1427E+02  -0.90892   2.27231
     395.00   3.596597     0.2729E+02  -0.62738   1.56844
     397.00   3.598790     0.1858E+02  -0.79442   1.98605
     399.00   3.600973     0.4724E+02  -0.38910   0.97276
     401.00   3.603144     0.5402E+02  -0.33084   0.82709
     403.00   3.605305     0.5263E+02  -0.34215   0.85538
     405.00   3.607455     0.4991E+02  -0.36516   0.91290
     407.00   3.609594     0.4554E+02  -0.40498   1.01246
     409.00   3.611723     0.6251E+02  -0.26745   0.66861
     411.00   3.613842     0.5807E+02  -0.29947   0.74866
     413.00   3.615950     0.5406E+02  -0.33051   0.82628
     415.00   3.618048     0.5211E+02  -0.34647   0.86616
     417.00   3.620136     0.5363E+02  -0.33402   0.83505
     419.00   3.622214     0.5317E+02  -0.33770   0.84425
     421.00   3.624282     0.5392E+02  -0.33162   0.82906
     423.00   3.626340     0.4804E+02  -0.38181   0.95452
     425.00   3.628389     0.5632E+02  -0.31273   0.78182
     427.00   3.630428     0.5261E+02  -0.34232   0.85579
     429.00   3.632457     0.4945E+02  -0.36927   0.92316
     431.00   3.634477     0.4379E+02  -0.42200   1.05500
     433.00   3.636488     0.6847E+02  -0.22790   0.56974
     435.00   3.638489     0.7064E+02  -0.21434   0.53585
     437.00   3.640481     0.7682E+02  -0.17792   0.44479
     439.00   3.642465     0.6496E+02  -0.25073   0.62683
     441.00   3.644439     0.6897E+02  -0.22476   0.56190
     443.00   3.646404     0.7549E+02  -0.18551   0.46378
     445.00   3.648360     0.7742E+02  -0.17452   0.43630
     447.00   3.650307     0.8506E+02  -0.13369   0.33422
     449.00   3.652246     0.8862E+02  -0.11587   0.28968
     451.00   3.654176     0.1055E+03  -0.04023   0.10058
     453.00   3.656098     0.8787E+02  -0.11954   0.29885
     455.00   3.658011     0.9413E+02  -0.08968   0.22419
     457.00   3.659916     0.1046E+03  -0.04405   0.11013
     459.00   3.661813     0.9738E+02  -0.07490   0.18725
     461.00   3.663701     0.1006E+03  -0.06079   0.15197
     463.00   3.665581     0.9692E+02  -0.07698   0.19244
     465.00   3.667453     0.9859E+02  -0.06954   0.17385
     467.00   3.669317     0.1052E+03  -0.04126   0.10315
     469.00   3.671173     0.1028E+03  -0.05132   0.12829
     471.00   3.673021     0.9942E+02  -0.06591   0.16478
     473.00   3.674861     0.1032E+03  -0.04953   0.12383
     475.00   3.676694     0.1064E+03  -0.03641   0.09103
     477.00   3.678518     0.1028E+03  -0.05138   0.12844
     479.00   3.680336     0.1047E+03  -0.04339   0.10846
     481.00   3.682145     0.1057E+03  -0.03943   0.09859
     483.00   3.683947     0.1111E+03  -0.01783   0.04457
     485.00   3.685742     0.1056E+03  -0.03988   0.09971
     487.00   3.687529     0.9689E+02  -0.07710   0.19274
     489.00   3.689309     0.1077E+03  -0.03119   0.07798
     491.00   3.691082     0.1085E+03  -0.02816   0.07039
     493.00   3.692847     0.1058E+03  -0.03900   0.09749
     495.00   3.694605     0.1102E+03  -0.02112   0.05279
     497.00   3.696356     0.1041E+03  -0.04579   0.11447
     499.00   3.698101     0.9574E+02  -0.08231   0.20576
     501.00   3.699838     0.8833E+02  -0.11729   0.29322
     503.00   3.701568     0.9630E+02  -0.07978   0.19944
     505.00   3.703291     0.9600E+02  -0.08110   0.20275
     507.00   3.705008     0.1008E+03  -0.05997   0.14991
     509.00   3.706718     0.9390E+02  -0.09073   0.22682
     511.00   3.708421     0.9740E+02  -0.07484   0.18711
     513.00   3.710117     0.9332E+02  -0.09341   0.23353
     515.00   3.711807     0.8949E+02  -0.11159   0.27898
     517.00   3.713490     0.7646E+02  -0.17993   0.44983
     519.00   3.715167     0.8147E+02  -0.15242   0.38104
     521.00   3.716838     0.9255E+02  -0.09700   0.24251
     523.00   3.718502     0.1065E+03  -0.03595   0.08988
     525.00   3.720159     0.1137E+03  -0.00759   0.01898
     527.00   3.721811     0.9604E+02  -0.08094   0.20234
     529.00   3.723456     0.1173E+03   0.00606  -0.01515
     531.00   3.725095     0.1278E+03   0.04299  -0.10747
     533.00   3.726727     0.1072E+03  -0.03327   0.08318
     535.00   3.728354     0.1220E+03   0.02297  -0.05743
     537.00   3.729974     0.1205E+03   0.01765  -0.04413
     539.00   3.731589     0.1171E+03   0.00513  -0.01282
     541.00   3.733197     0.1158E+03   0.00021  -0.00054
     543.00   3.734800     0.1179E+03   0.00817  -0.02044
     545.00   3.736397     0.1195E+03   0.01411  -0.03528
     547.00   3.737987     0.1166E+03   0.00325  -0.00811
     549.00   3.739572     0.1178E+03   0.00778  -0.01945
     551.00   3.741152     0.1157E+03   0.00000   0.00000
     553.00   3.742725     0.1227E+03   0.02556  -0.06389
     555.00   3.744293     0.1258E+03   0.03633  -0.09082
     557.00   3.745855     0.1232E+03   0.02720  -0.06799
     559.00   3.747412     0.1186E+03   0.01080  -0.02701
     561.00   3.748963     0.1234E+03   0.02776  -0.06940
     563.00   3.750508     0.1226E+03   0.02526  -0.06314
