age =   14.0    [Fe/H] =    0.00

wavele(nm) log wave(A)   Hlam       log(Hlam/Hlam(V))  Hlam(mag(V)) 
      89.50   2.951823     0.7933E-13 -15.23722  38.09305
      90.50   2.956649     0.1301E-12 -15.02252  37.55629
      91.50   2.961421     0.2040E-12 -14.82709  37.06771
      92.50   2.966142     0.7524E-11 -13.26024  33.15059
      93.50   2.970812     0.1054E-10 -13.11404  32.78510
      94.50   2.975432     0.1549E-10 -12.94653  32.36633
      95.50   2.980003     0.2370E-10 -12.76197  31.90492
      96.50   2.984527     0.3525E-10 -12.58952  31.47379
      97.50   2.989005     0.4750E-10 -12.46000  31.15001
      98.50   2.993436     0.6761E-10 -12.30668  30.76670
      99.50   2.997823     0.9312E-10 -12.16765  30.41912
     100.50   3.002166     0.1396E-09 -11.99168  29.97921
     101.50   3.006466     0.1919E-09 -11.85360  29.63399
     102.50   3.010724     0.2233E-09 -11.78783  29.46956
     103.50   3.014940     0.3699E-09 -11.56857  28.92143
     104.50   3.019116     0.5160E-09 -11.42403  28.56007
     105.50   3.023252     0.6585E-09 -11.31815  28.29537
     106.50   3.027350     0.9026E-09 -11.18118  27.95296
     107.50   3.031409     0.1228E-08 -11.04753  27.61884
     108.50   3.035430     0.1665E-08 -10.91538  27.28845
     109.50   3.039414     0.2090E-08 -10.81653  27.04132
     110.50   3.043362     0.7115E-08 -10.28450  25.71126
     111.50   3.047275     0.1157E-07 -10.07337  25.18342
     112.50   3.051152     0.1700E-07  -9.90634  24.76584
     113.50   3.054996     0.2531E-07  -9.73332  24.33330
     114.50   3.058805     0.3401E-07  -9.60509  24.01272
     115.50   3.062582     0.4064E-07  -9.52777  23.81944
     116.50   3.066326     0.5524E-07  -9.39443  23.48607
     117.50   3.070038     0.7190E-07  -9.27993  23.19981
     118.50   3.073718     0.8135E-07  -9.22630  23.06576
     119.50   3.077368     0.7405E-07  -9.26712  23.16781
     120.50   3.080987     0.8312E-07  -9.21698  23.04246
     121.50   3.084576     0.2379E-07  -9.76019  24.40047
     122.50   3.088136     0.1152E-06  -9.07506  22.68766
     123.50   3.091667     0.2141E-06  -8.80605  22.01513
     124.50   3.095169     0.2867E-06  -8.67926  21.69816
     125.50   3.098644     0.3444E-06  -8.59958  21.49896
     126.50   3.102091     0.3788E-06  -8.55823  21.39559
     127.50   3.105510     0.4630E-06  -8.47109  21.17772
     128.50   3.108903     0.5217E-06  -8.41925  21.04813
     129.50   3.112270     0.6370E-06  -8.33257  20.83141
     130.50   3.115611     0.6787E-06  -8.30498  20.76244
     131.50   3.118926     0.8490E-06  -8.20777  20.51943
     132.50   3.122216     0.8892E-06  -8.18767  20.46917
     133.50   3.125481     0.9984E-06  -8.13738  20.34346
     134.50   3.128722     0.1188E-05  -8.06170  20.15426
     135.50   3.131939     0.1401E-05  -7.99009  19.97522
     136.50   3.135133     0.1514E-05  -7.95658  19.89146
     137.50   3.138303     0.1656E-05  -7.91761  19.79404
     138.50   3.141450     0.1839E-05  -7.87211  19.68027
     139.50   3.144574     0.2086E-05  -7.81746  19.54364
     140.50   3.147676     0.2566E-05  -7.72750  19.31874
     141.50   3.150756     0.2949E-05  -7.66705  19.16762
     142.50   3.153815     0.3435E-05  -7.60074  19.00186
     143.50   3.156852     0.4131E-05  -7.52058  18.80144
     144.20   3.158965     0.5338E-05  -7.40932  18.52330
     144.70   3.160469     0.4832E-05  -7.45254  18.63135
     145.50   3.162863     0.5696E-05  -7.38113  18.45283
     146.50   3.165838     0.7385E-05  -7.26835  18.17087
     147.50   3.168792     0.8498E-05  -7.20736  18.01839
     148.50   3.171726     0.9201E-05  -7.17285  17.93213
     149.50   3.174641     0.1208E-04  -7.05459  17.63647
     150.50   3.177536     0.1487E-04  -6.96448  17.41120
     151.20   3.179552     0.1135E-04  -7.08166  17.70416
     151.70   3.180986     0.1454E-04  -6.97420  17.43550
     152.50   3.183270     0.3636E-04  -6.57611  16.44027
     153.50   3.186108     0.6193E-04  -6.34479  15.86197
     154.50   3.188928     0.5060E-04  -6.43249  16.08121
     155.50   3.191730     0.8617E-04  -6.20132  15.50330
     156.50   3.194514     0.8128E-04  -6.22671  15.56678
     157.50   3.197281     0.1596E-03  -5.93360  14.83400
     158.50   3.200029     0.1951E-03  -5.84651  14.61627
     159.50   3.202761     0.2297E-03  -5.77560  14.43901
     160.50   3.205475     0.2462E-03  -5.74546  14.36364
     161.50   3.208173     0.2706E-03  -5.70437  14.26092
     162.50   3.210853     0.3064E-03  -5.65041  14.12603
     163.50   3.213518     0.3638E-03  -5.57584  13.93960
     164.50   3.216166     0.5226E-03  -5.41847  13.54617
     165.50   3.218798     0.3412E-03  -5.60373  14.00932
     166.50   3.221414     0.6117E-03  -5.35013  13.37531
     167.20   3.223236     0.4279E-03  -5.50537  13.76343
     167.70   3.224533     0.1668E-02  -4.91435  12.28589
     168.50   3.226600     0.1883E-02  -4.86182  12.15455
     169.50   3.229170     0.2374E-02  -4.76117  11.90293
     170.50   3.231725     0.2556E-02  -4.72917  11.82293
     171.50   3.234264     0.2404E-02  -4.75569  11.88922
     172.50   3.236789     0.3131E-02  -4.64094  11.60236
     173.50   3.239300     0.3746E-02  -4.56310  11.40776
     174.50   3.241796     0.5213E-02  -4.41955  11.04887
     175.50   3.244277     0.7048E-02  -4.28863  10.72156
     176.50   3.246745     0.6648E-02  -4.31401  10.78502
     177.50   3.249198     0.7191E-02  -4.27986  10.69965
     178.50   3.251638     0.9568E-02  -4.15585  10.38963
     179.50   3.254065     0.1151E-01  -4.07577  10.18942
     180.50   3.256477     0.1247E-01  -4.04083  10.10209
     181.50   3.258877     0.1171E-01  -4.06804  10.17009
     182.50   3.261263     0.1495E-01  -3.96202   9.90504
     183.50   3.263636     0.1563E-01  -3.94266   9.85665
     184.50   3.265996     0.1206E-01  -4.05530  10.13825
     185.50   3.268344     0.1726E-01  -3.89971   9.74928
     186.50   3.270679     0.2041E-01  -3.82679   9.56696
     187.50   3.273001     0.2215E-01  -3.79134   9.47836
     188.50   3.275311     0.2387E-01  -3.75890   9.39724
     189.50   3.277609     0.3134E-01  -3.64063   9.10157
     190.50   3.279895     0.3063E-01  -3.65053   9.12633
     191.50   3.282169     0.3442E-01  -3.59985   8.99962
     192.50   3.284431     0.3501E-01  -3.59245   8.98114
     193.50   3.286681     0.2523E-01  -3.73483   9.33708
     194.50   3.288920     0.4549E-01  -3.47874   8.69684
     195.50   3.291147     0.4805E-01  -3.45496   8.63741
     196.70   3.293804     0.6231E-01  -3.34213   8.35531
     197.60   3.295787     0.6012E-01  -3.35766   8.39414
     198.40   3.297542     0.7056E-01  -3.28812   8.22030
     199.50   3.299943     0.7307E-01  -3.27293   8.18231
     200.50   3.302114     0.7181E-01  -3.28050   8.20126
     201.50   3.304275     0.7940E-01  -3.23685   8.09212
     202.50   3.306425     0.6537E-01  -3.32128   8.30321
     203.50   3.308564     0.8987E-01  -3.18305   7.95762
     204.50   3.310693     0.1040E+00  -3.11984   7.79960
     205.50   3.312812     0.1085E+00  -3.10119   7.75298
     206.50   3.314920     0.1089E+00  -3.09981   7.74952
     207.40   3.316809     0.1183E+00  -3.06371   7.65928
     207.80   3.317646     0.3498E+00  -2.59289   6.48223
     208.50   3.319106     0.4827E+00  -2.45300   6.13249
     209.50   3.321184     0.4436E+00  -2.48967   6.22417
     210.50   3.323252     0.4491E+00  -2.48436   6.21090
     211.50   3.325310     0.5405E+00  -2.40386   6.00964
     212.50   3.327359     0.4762E+00  -2.45885   6.14711
     213.50   3.329398     0.4835E+00  -2.45227   6.13068
     214.50   3.331427     0.6522E+00  -2.32232   5.80579
     215.50   3.333447     0.6063E+00  -2.35398   5.88496
     216.50   3.335458     0.5258E+00  -2.41586   6.03965
     217.50   3.337459     0.5138E+00  -2.42585   6.06463
     218.50   3.339452     0.7647E+00  -2.25320   5.63301
     219.50   3.341434     0.7127E+00  -2.28374   5.70936
     220.50   3.343409     0.7279E+00  -2.27461   5.68652
     221.50   3.345374     0.5274E+00  -2.41451   6.03627
     222.50   3.347330     0.7053E+00  -2.28829   5.72073
     223.50   3.349277     0.1041E+01  -2.11919   5.29796
     224.50   3.351216     0.9965E+00  -2.13820   5.34550
     225.50   3.353147     0.7199E+00  -2.27940   5.69851
     226.50   3.355068     0.5959E+00  -2.36149   5.90372
     227.50   3.356982     0.6613E+00  -2.31629   5.79073
     228.50   3.358886     0.1103E+01  -2.09416   5.23540
     229.50   3.360783     0.8356E+00  -2.21468   5.53670
     230.50   3.362671     0.1093E+01  -2.09812   5.24529
     231.50   3.364551     0.9002E+00  -2.18235   5.45587
     232.50   3.366423     0.7851E+00  -2.24174   5.60435
     233.50   3.368287     0.7058E+00  -2.28797   5.71992
     234.50   3.370143     0.4409E+00  -2.49234   6.23085
     235.50   3.371991     0.9094E+00  -2.17792   5.44480
     236.50   3.373831     0.5258E+00  -2.41587   6.03967
     237.50   3.375664     0.6934E+00  -2.29567   5.73917
     238.50   3.377488     0.4223E+00  -2.51104   6.27759
     239.50   3.379306     0.5387E+00  -2.40534   6.01336
     240.50   3.381115     0.5755E+00  -2.37666   5.94164
     241.50   3.382917     0.6297E+00  -2.33755   5.84388
     242.50   3.384712     0.1201E+01  -2.05705   5.14262
     243.50   3.386499     0.1262E+01  -2.03559   5.08897
     244.50   3.388279     0.1590E+01  -1.93518   4.83796
     245.50   3.390052     0.1756E+01  -1.89225   4.73064
     246.50   3.391817     0.1331E+01  -2.01242   5.03105
     247.50   3.393575     0.1152E+01  -2.07523   5.18807
     248.50   3.395326     0.4775E+00  -2.45768   6.14420
     249.50   3.397071     0.7482E+00  -2.26266   5.65666
     250.50   3.398808     0.1315E+01  -2.01786   5.04465
     251.30   3.400192     0.5294E+00  -2.41290   6.03224
     251.80   3.401056     0.3757E+00  -2.56183   6.40458
     252.50   3.402261     0.4361E+00  -2.49710   6.24276
     253.50   3.403978     0.9961E+00  -2.13839   5.34596
     254.50   3.405688     0.1048E+01  -2.11637   5.29093
     255.50   3.407391     0.2639E+01  -1.71528   4.28820
     256.50   3.409087     0.1742E+01  -1.89569   4.73924
     257.50   3.410777     0.2516E+01  -1.73599   4.33997
     258.50   3.412461     0.2155E+01  -1.80330   4.50826
     259.50   3.414137     0.1924E+01  -1.85237   4.63092
     260.50   3.415808     0.1643E+01  -1.92105   4.80263
     261.50   3.417472     0.1456E+01  -1.97364   4.93409
     262.50   3.419129     0.2115E+01  -1.81131   4.52828
     263.50   3.420781     0.4532E+01  -1.48039   3.70099
     264.50   3.422426     0.6104E+01  -1.35109   3.37773
     265.50   3.424065     0.9889E+01  -1.14150   2.85375
     266.50   3.425697     0.5465E+01  -1.39907   3.49767
     267.50   3.427324     0.6251E+01  -1.34071   3.35177
     268.50   3.428944     0.7849E+01  -1.24186   3.10464
     269.50   3.430559     0.4978E+01  -1.43961   3.59902
     270.50   3.432167     0.6758E+01  -1.30687   3.26718
     271.50   3.433770     0.4446E+01  -1.48867   3.72167
     272.50   3.435366     0.2819E+01  -1.68662   4.21656
     273.50   3.436957     0.4135E+01  -1.52021   3.80052
     274.50   3.438542     0.2336E+01  -1.76813   4.42034
     275.50   3.440122     0.3445E+01  -1.59945   3.99862
     276.50   3.441695     0.4834E+01  -1.45236   3.63091
     277.50   3.443263     0.5077E+01  -1.43108   3.57771
     278.50   3.444825     0.2780E+01  -1.69260   4.23149
     279.50   3.446382     0.1221E+01  -2.04981   5.12453
     280.50   3.447933     0.1512E+01  -1.95708   4.89269
     281.50   3.449478     0.4328E+01  -1.50035   3.75087
     282.50   3.451018     0.6498E+01  -1.32390   3.30975
     283.50   3.452553     0.5686E+01  -1.38188   3.45470
     284.50   3.454082     0.3247E+01  -1.62525   4.06313
     285.50   3.455606     0.1568E+01  -1.94124   4.85310
     286.50   3.457125     0.5108E+01  -1.42845   3.57112
     287.50   3.458638     0.8772E+01  -1.19359   2.98398
     288.50   3.460146     0.8149E+01  -1.22554   3.06386
     289.50   3.461648     0.1148E+02  -1.07687   2.69218
     291.00   3.463893     0.1741E+02  -0.89583   2.23957
     293.00   3.466868     0.1643E+02  -0.92108   2.30270
     295.00   3.469822     0.1625E+02  -0.92587   2.31467
     297.00   3.472756     0.1742E+02  -0.89566   2.23915
     299.00   3.475671     0.1893E+02  -0.85959   2.14898
     301.00   3.478566     0.1904E+02  -0.85705   2.14263
     303.00   3.481443     0.2134E+02  -0.80757   2.01892
     305.00   3.484300     0.2195E+02  -0.79533   1.98832
     307.00   3.487138     0.2154E+02  -0.80351   2.00877
     309.00   3.489959     0.1823E+02  -0.87594   2.18986
     311.00   3.492760     0.2286E+02  -0.77762   1.94404
     313.00   3.495544     0.1995E+02  -0.83683   2.09208
     315.00   3.498311     0.2014E+02  -0.83255   2.08137
     317.00   3.501059     0.2367E+02  -0.76249   1.90623
     319.00   3.503791     0.1986E+02  -0.83871   2.09677
     321.00   3.506505     0.2215E+02  -0.79134   1.97836
     323.00   3.509202     0.1885E+02  -0.86126   2.15315
     325.00   3.511883     0.2839E+02  -0.68351   1.70878
     327.00   3.514548     0.3316E+02  -0.61608   1.54021
     329.00   3.517196     0.3250E+02  -0.62481   1.56203
     331.00   3.519828     0.2925E+02  -0.67049   1.67622
     333.00   3.522444     0.3066E+02  -0.65005   1.62513
     335.00   3.525045     0.2963E+02  -0.66491   1.66227
     337.00   3.527630     0.2036E+02  -0.82779   2.06948
     339.00   3.530200     0.2448E+02  -0.74781   1.86953
     341.00   3.532754     0.2595E+02  -0.72256   1.80639
     343.00   3.535294     0.2849E+02  -0.68203   1.70508
     345.00   3.537819     0.3295E+02  -0.61886   1.54714
     347.00   3.540329     0.3471E+02  -0.59626   1.49065
     349.00   3.542825     0.3906E+02  -0.54497   1.36242
     351.00   3.545307     0.4124E+02  -0.52137   1.30343
     353.00   3.547775     0.3619E+02  -0.57808   1.44519
     355.00   3.550228     0.4024E+02  -0.53203   1.33009
     357.00   3.552668     0.3015E+02  -0.65737   1.64342
     359.00   3.555094     0.3241E+02  -0.62595   1.56487
     361.00   3.557507     0.4105E+02  -0.52332   1.30831
     363.00   3.559907     0.4183E+02  -0.51514   1.28785
     364.00   3.561101     0.4129E+02  -0.52078   1.30195
     365.00   3.562293     0.4335E+02  -0.49969   1.24923
     367.00   3.564666     0.4752E+02  -0.45981   1.14953
     369.00   3.567026     0.4137E+02  -0.52002   1.30005
     371.00   3.569374     0.4290E+02  -0.50417   1.26043
     373.00   3.571709     0.2522E+02  -0.73491   1.83729
     375.00   3.574031     0.2948E+02  -0.66716   1.66789
     377.00   3.576341     0.4142E+02  -0.51941   1.29854
     379.00   3.578639     0.4263E+02  -0.50699   1.26747
     381.00   3.580925     0.3848E+02  -0.55147   1.37866
     383.00   3.583199     0.1947E+02  -0.84731   2.11827
     385.00   3.585461     0.2791E+02  -0.69093   1.72733
     387.00   3.587711     0.2753E+02  -0.69691   1.74227
     389.00   3.589950     0.3835E+02  -0.55296   1.38240
     391.00   3.592177     0.4836E+02  -0.45223   1.13056
     393.00   3.594393     0.2176E+02  -0.79907   1.99767
     395.00   3.596597     0.4112E+02  -0.52265   1.30662
     397.00   3.598790     0.2794E+02  -0.69048   1.72620
     399.00   3.600973     0.6647E+02  -0.31405   0.78514
     401.00   3.603144     0.7439E+02  -0.26517   0.66292
     403.00   3.605305     0.7283E+02  -0.27437   0.68592
     405.00   3.607455     0.6948E+02  -0.29480   0.73699
     407.00   3.609594     0.6460E+02  -0.32644   0.81609
     409.00   3.611723     0.8383E+02  -0.21326   0.53314
     411.00   3.613842     0.7833E+02  -0.24277   0.60692
     413.00   3.615950     0.7491E+02  -0.26213   0.65532
     415.00   3.618048     0.7258E+02  -0.27589   0.68971
     417.00   3.620136     0.7423E+02  -0.26612   0.66530
     419.00   3.622214     0.7240E+02  -0.27691   0.69227
     421.00   3.624282     0.7341E+02  -0.27091   0.67728
     423.00   3.626340     0.6827E+02  -0.30243   0.75607
     425.00   3.628389     0.7473E+02  -0.26315   0.65788
     427.00   3.630428     0.6993E+02  -0.29201   0.73002
     429.00   3.632457     0.6518E+02  -0.32254   0.80634
     431.00   3.634477     0.5633E+02  -0.38592   0.96480
     433.00   3.636488     0.8685E+02  -0.19790   0.49475
     435.00   3.638489     0.8748E+02  -0.19478   0.48694
     437.00   3.640481     0.9484E+02  -0.15968   0.39919
     439.00   3.642465     0.8237E+02  -0.22092   0.55230
     441.00   3.644439     0.8810E+02  -0.19170   0.47925
     443.00   3.646404     0.9650E+02  -0.15216   0.38040
     445.00   3.648360     0.9777E+02  -0.14647   0.36618
     447.00   3.650307     0.1059E+03  -0.11174   0.27934
     449.00   3.652246     0.1095E+03  -0.09725   0.24312
     451.00   3.654176     0.1268E+03  -0.03371   0.08427
     453.00   3.656098     0.1090E+03  -0.09921   0.24803
     455.00   3.658011     0.1155E+03  -0.07415   0.18536
     457.00   3.659916     0.1262E+03  -0.03564   0.08909
     459.00   3.661813     0.1181E+03  -0.06453   0.16131
     461.00   3.663701     0.1223E+03  -0.04928   0.12320
     463.00   3.665581     0.1188E+03  -0.06173   0.15434
     465.00   3.667453     0.1206E+03  -0.05533   0.13833
     467.00   3.669317     0.1269E+03  -0.03313   0.08282
     469.00   3.671173     0.1238E+03  -0.04410   0.11024
     471.00   3.673021     0.1211E+03  -0.05342   0.13354
     473.00   3.674861     0.1252E+03  -0.03905   0.09762
     475.00   3.676694     0.1287E+03  -0.02716   0.06790
     477.00   3.678518     0.1253E+03  -0.03862   0.09656
     479.00   3.680336     0.1268E+03  -0.03363   0.08407
     481.00   3.682145     0.1276E+03  -0.03093   0.07733
     483.00   3.683947     0.1325E+03  -0.01443   0.03606
     485.00   3.685742     0.1266E+03  -0.03421   0.08554
     487.00   3.687529     0.1166E+03  -0.07016   0.17539
     489.00   3.689309     0.1288E+03  -0.02683   0.06708
     491.00   3.691082     0.1297E+03  -0.02386   0.05964
     493.00   3.692847     0.1271E+03  -0.03252   0.08131
     495.00   3.694605     0.1324E+03  -0.01479   0.03697
     497.00   3.696356     0.1268E+03  -0.03371   0.08426
     499.00   3.698101     0.1176E+03  -0.06642   0.16604
     501.00   3.699838     0.1102E+03  -0.09468   0.23670
     503.00   3.701568     0.1184E+03  -0.06329   0.15821
     505.00   3.703291     0.1183E+03  -0.06377   0.15942
     507.00   3.705008     0.1238E+03  -0.04381   0.10953
     509.00   3.706718     0.1167E+03  -0.06969   0.17422
     511.00   3.708421     0.1200E+03  -0.05757   0.14392
     513.00   3.710117     0.1161E+03  -0.07180   0.17949
     515.00   3.711807     0.1116E+03  -0.08883   0.22207
     517.00   3.713490     0.9856E+02  -0.14295   0.35739
     519.00   3.715167     0.1036E+03  -0.12128   0.30320
     521.00   3.716838     0.1146E+03  -0.07730   0.19325
     523.00   3.718502     0.1276E+03  -0.03082   0.07705
     525.00   3.720159     0.1343E+03  -0.00849   0.02123
     527.00   3.721811     0.1162E+03  -0.07144   0.17861
     529.00   3.723456     0.1376E+03   0.00192  -0.00480
     531.00   3.725095     0.1475E+03   0.03207  -0.08017
     533.00   3.726727     0.1278E+03  -0.03019   0.07549
     535.00   3.728354     0.1424E+03   0.01679  -0.04196
     537.00   3.729974     0.1409E+03   0.01224  -0.03060
     539.00   3.731589     0.1377E+03   0.00235  -0.00589
     541.00   3.733197     0.1357E+03  -0.00424   0.01060
     543.00   3.734800     0.1380E+03   0.00317  -0.00793
     545.00   3.736397     0.1408E+03   0.01185  -0.02962
     547.00   3.737987     0.1374E+03   0.00124  -0.00311
     549.00   3.739572     0.1397E+03   0.00865  -0.02162
     551.00   3.741152     0.1370E+03   0.00000   0.00000
     553.00   3.742725     0.1431E+03   0.01890  -0.04724
     555.00   3.744293     0.1459E+03   0.02751  -0.06878
     557.00   3.745855     0.1427E+03   0.01772  -0.04431
     559.00   3.747412     0.1385E+03   0.00484  -0.01211
     561.00   3.748963     0.1437E+03   0.02065  -0.05163
